# Gaussian folded, width=10 cm^-1
# [cm^-1] arbitrary
0.000      3.00000e+00
1.000      2.91796e+00
2.000      2.68508e+00
3.000      2.33749e+00
4.000      1.92514e+00
5.000      1.50000e+00
6.000      1.10570e+00
7.000      7.71085e-01
8.000      5.08727e-01
9.000      3.17530e-01
10.000      1.87501e-01
11.000      1.04750e-01
12.000      5.53725e-02
13.000      2.77223e-02
14.000      1.32223e-02
15.000      6.22818e-03
16.000      3.47863e-03
17.000      3.55109e-03
18.000      6.58469e-03
19.000      1.44101e-02
20.000      3.11404e-02
21.000      6.41807e-02
22.000      1.25453e-01
23.000      2.32375e-01
24.000      4.07850e-01
25.000      6.78303e-01
26.000      1.06901e+00
27.000      1.59660e+00
28.000      2.25989e+00
29.000      3.03161e+00
30.000      3.85452e+00
31.000      4.64508e+00
32.000      5.30584e+00
33.000      5.74466e+00
34.000      5.89565e+00
35.000      5.73545e+00
36.000      5.28919e+00
37.000      4.62425e+00
38.000      3.83407e+00
39.000      3.01749e+00
40.000      2.26049e+00
41.000      1.62498e+00
42.000      1.14664e+00
43.000      8.40088e-01
44.000      7.07796e-01
45.000      7.48303e-01
46.000      9.60548e-01
47.000      1.34271e+00
48.000      1.88617e+00
49.000      2.56703e+00
50.000      3.33906e+00
51.000      4.13186e+00
52.000      4.85677e+00
53.000      5.42064e+00
54.000      5.74418e+00
55.000      5.77969e+00
56.000      5.52230e+00
57.000      5.01102e+00
58.000      4.31921e+00
59.000      3.53781e+00
60.000      2.75672e+00
61.000      2.05000e+00
62.000      1.46820e+00
63.000      1.03857e+00
64.000      7.71068e-01
65.000      6.66793e-01
66.000      7.25040e-01
67.000      9.46513e-01
68.000      1.33152e+00
69.000      1.87399e+00
70.000      2.55374e+00
71.000      3.33056e+00
72.000      4.14367e+00
73.000      4.91866e+00
74.000      5.58171e+00
75.000      6.07751e+00
76.000      6.38547e+00
77.000      6.52840e+00
78.000      6.56980e+00
79.000      6.60008e+00
80.000      6.71558e+00
81.000      6.99699e+00
82.000      7.49368e+00
83.000      8.21783e+00
84.000      9.14843e+00
85.000      1.02418e+01
86.000      1.14429e+01
87.000      1.26934e+01
88.000      1.39332e+01
89.000      1.50975e+01
90.000      1.61131e+01
91.000      1.68984e+01
92.000      1.73707e+01
93.000      1.74605e+01
94.000      1.71290e+01
95.000      1.63819e+01
96.000      1.52747e+01
97.000      1.39058e+01
98.000      1.23997e+01
99.000      1.08856e+01
100.000      9.47846e+00
101.000      8.26738e+00
102.000      7.31220e+00
103.000      6.64739e+00
104.000      6.28856e+00
105.000      6.23824e+00
106.000      6.48892e+00
107.000      7.02345e+00
108.000      7.81416e+00
109.000      8.82250e+00
110.000      1.00005e+01
111.000      1.12944e+01
112.000      1.26489e+01
113.000      1.40122e+01
114.000      1.53370e+01
115.000      1.65800e+01
116.000      1.76977e+01
117.000      1.86427e+01
118.000      1.93632e+01
119.000      1.98072e+01
120.000      1.99341e+01
121.000      1.97269e+01
122.000      1.92039e+01
123.000      1.84216e+01
124.000      1.74675e+01
125.000      1.64442e+01
126.000      1.54492e+01
127.000      1.45572e+01
128.000      1.38108e+01
129.000      1.32195e+01
130.000      1.27679e+01
131.000      1.24278e+01
132.000      1.21704e+01
133.000      1.19755e+01
134.000      1.18362e+01
135.000      1.17573e+01
136.000      1.17497e+01
137.000      1.18205e+01
138.000      1.19635e+01
139.000      1.21525e+01
140.000      1.23404e+01
141.000      1.24658e+01
142.000      1.24648e+01
143.000      1.22862e+01
144.000      1.19039e+01
145.000      1.13232e+01
146.000      1.05792e+01
147.000      9.72771e+00
148.000      8.83201e+00
149.000      7.95040e+00
150.000      7.12728e+00
151.000      6.38978e+00
152.000      5.74967e+00
153.000      5.20855e+00
154.000      4.76440e+00
155.000      4.41759e+00
156.000      4.17484e+00
157.000      4.05026e+00
158.000      4.06285e+00
159.000      4.23071e+00
160.000      4.56340e+00
161.000      5.05459e+00
162.000      5.67790e+00
163.000      6.38861e+00
164.000      7.13215e+00
165.000      7.85853e+00
166.000      8.53874e+00
167.000      9.17735e+00
168.000      9.81503e+00
169.000      1.05174e+01
170.000      1.13517e+01
171.000      1.23577e+01
172.000      1.35251e+01
173.000      1.47854e+01
174.000      1.60252e+01
175.000      1.71156e+01
176.000      1.79493e+01
177.000      1.84708e+01
178.000      1.86906e+01
179.000      1.86780e+01
180.000      1.85360e+01
181.000      1.83683e+01
182.000      1.82472e+01
183.000      1.81942e+01
184.000      1.81785e+01
185.000      1.81342e+01
186.000      1.79929e+01
187.000      1.77217e+01
188.000      1.73534e+01
189.000      1.69983e+01
190.000      1.68284e+01
191.000      1.70365e+01
192.000      1.77806e+01
193.000      1.91294e+01
194.000      2.10293e+01
195.000      2.33034e+01
196.000      2.56869e+01
197.000      2.78889e+01
198.000      2.96602e+01
199.000      3.08496e+01
200.000      3.14273e+01
201.000      3.14731e+01
202.000      3.11326e+01
203.000      3.05607e+01
204.000      2.98707e+01
205.000      2.91061e+01
206.000      2.82426e+01
207.000      2.72149e+01
208.000      2.59546e+01
209.000      2.44255e+01
210.000      2.26422e+01
211.000      2.06703e+01
212.000      1.86107e+01
213.000      1.65775e+01
214.000      1.46760e+01
215.000      1.29877e+01
216.000      1.15614e+01
217.000      1.04107e+01
218.000      9.51580e+00
219.000      8.82799e+00
220.000      8.27852e+00
221.000      7.79055e+00
222.000      7.29383e+00
223.000      6.73907e+00
224.000      6.10881e+00
225.000      5.42177e+00
226.000      4.72938e+00
227.000      4.10539e+00
228.000      3.63117e+00
229.000      3.38002e+00
230.000      3.40388e+00
231.000      3.72476e+00
232.000      4.33244e+00
233.000      5.18853e+00
234.000      6.23551e+00
235.000      7.40838e+00
236.000      8.64520e+00
237.000      9.89360e+00
238.000      1.11115e+01
239.000      1.22632e+01
240.000      1.33134e+01
241.000      1.42233e+01
242.000      1.49504e+01
243.000      1.54531e+01
244.000      1.56964e+01
245.000      1.56580e+01
246.000      1.53316e+01
247.000      1.47289e+01
248.000      1.38789e+01
249.000      1.28280e+01
250.000      1.16373e+01
251.000      1.03785e+01
252.000      9.12596e+00
253.000      7.94629e+00
254.000      6.88810e+00
255.000      5.97522e+00
256.000      5.20650e+00
257.000      4.56291e+00
258.000      4.02014e+00
259.000      3.56284e+00
260.000      3.19630e+00
261.000      2.95247e+00
262.000      2.88885e+00
263.000      3.08114e+00
264.000      3.61093e+00
265.000      4.55078e+00
266.000      5.94844e+00
267.000      7.81265e+00
268.000      1.01032e+01
269.000      1.27285e+01
270.000      1.55526e+01
271.000      1.84132e+01
272.000      2.11476e+01
273.000      2.36202e+01
274.000      2.57457e+01
275.000      2.74999e+01
276.000      2.89163e+01
277.000      3.00674e+01
278.000      3.10373e+01
279.000      3.18923e+01
280.000      3.26561e+01
281.000      3.32958e+01
282.000      3.37229e+01
283.000      3.38093e+01
284.000      3.34164e+01
285.000      3.24316e+01
286.000      3.08038e+01
287.000      2.85659e+01
288.000      2.58395e+01
289.000      2.28168e+01
290.000      1.97242e+01
291.000      1.67797e+01
292.000      1.41545e+01
293.000      1.19504e+01
294.000      1.01973e+01
295.000      8.86729e+00
296.000      7.89937e+00
297.000      7.22313e+00
298.000      6.77549e+00
299.000      6.50652e+00
300.000      6.37601e+00
301.000      6.34533e+00
302.000      6.37005e+00
303.000      6.39740e+00
304.000      6.37027e+00
305.000      6.23651e+00
306.000      5.96034e+00
307.000      5.53179e+00
308.000      4.97074e+00
309.000      4.32394e+00
310.000      3.65563e+00
311.000      3.03448e+00
312.000      2.52043e+00
313.000      2.15484e+00
314.000      1.95590e+00
315.000      1.91935e+00
316.000      2.02331e+00
317.000      2.23509e+00
318.000      2.51798e+00
319.000      2.83669e+00
320.000      3.16075e+00
321.000      3.46586e+00
322.000      3.73347e+00
323.000      3.94919e+00
324.000      4.10077e+00
325.000      4.17674e+00
326.000      4.16664e+00
327.000      4.06325e+00
328.000      3.86628e+00
329.000      3.58584e+00
330.000      3.24371e+00
331.000      2.87109e+00
332.000      2.50263e+00
333.000      2.16873e+00
334.000      1.88857e+00
335.000      1.66653e+00
336.000      1.49318e+00
337.000      1.35037e+00
338.000      1.21821e+00
339.000      1.08151e+00
340.000      9.33466e-01
341.000      7.76022e-01
342.000      6.17341e-01
343.000      4.67935e-01
344.000      3.37031e-01
345.000      2.30269e-01
346.000      1.49084e-01
347.000      9.14067e-02
348.000      5.30525e-02
349.000      2.91415e-02
350.000      1.51472e-02
351.000      7.44956e-03
352.000      3.46644e-03
353.000      1.52607e-03
354.000      6.35621e-04
355.000      2.50465e-04
356.000      9.33727e-05
357.000      3.29316e-05
358.000      1.09881e-05
359.000      3.46861e-06
360.000      1.03587e-06
361.000      2.92666e-07
362.000      7.82271e-08
363.000      1.97815e-08
364.000      4.73239e-09
365.000      1.07107e-09
366.000      2.29337e-10
367.000      4.64567e-11
368.000      8.90307e-12
369.000      1.61417e-12
370.000      2.76869e-13
371.000      4.49282e-14
372.000      6.89732e-15
373.000      1.00175e-15
374.000      1.37644e-16
375.000      1.78925e-17
376.000      2.20041e-18
377.000      2.56007e-19
378.000      2.81786e-20
379.000      2.93430e-21
380.000      2.89072e-22
381.000      2.69418e-23
382.000      2.37555e-24
383.000      1.98162e-25
384.000      1.56384e-26
385.000      1.16757e-27
386.000      8.24690e-29
387.000      5.51082e-30
388.000      3.48385e-31
389.000      2.08363e-32
390.000      1.17896e-33
391.000      6.31095e-35
392.000      3.19601e-36
393.000      1.53123e-37
394.000      6.94046e-39
395.000      2.97615e-40
396.000      1.20737e-41
397.000      4.63383e-43
398.000      1.68252e-44
399.000      5.77958e-46
400.000      1.87824e-47
401.000      5.77461e-49
402.000      1.67963e-50
403.000      4.62189e-52
404.000      1.20322e-53
405.000      2.96338e-55
406.000      6.90473e-57
407.000      1.52203e-58
408.000      3.17409e-60
409.000      6.26228e-62
410.000      1.16886e-63
411.000      2.06401e-65
412.000      3.44807e-67
413.000      5.44954e-69
414.000      8.14818e-71
415.000      1.15260e-72
416.000      1.54246e-74
417.000      1.95285e-76
418.000      2.33905e-78
419.000      2.65051e-80
420.000      2.84142e-82
421.000      2.88177e-84
422.000      2.76504e-86
423.000      2.50992e-88
424.000      2.15544e-90
425.000      1.75118e-92
426.000      1.34599e-94
427.000      9.78752e-97
428.000      6.73318e-99
429.000     4.38213e-101
430.000     2.69816e-103
431.000     1.57169e-105
432.000     8.66134e-108
433.000     4.51565e-110
434.000     2.22727e-112
435.000     1.03931e-114
436.000     4.58808e-117
437.000     1.91618e-119
438.000     7.57112e-122
439.000     2.83009e-124
440.000     1.00083e-126
441.000     3.34839e-129
442.000     1.05981e-131
443.000     3.17351e-134
444.000     8.99020e-137
445.000     2.40944e-139
446.000     6.10913e-142
447.000     1.46542e-144
448.000     3.32553e-147
449.000     7.13966e-150
450.000     1.45015e-152
451.000     2.78653e-155
452.000     5.06563e-158
453.000     8.71205e-161
454.000     1.41751e-163
455.000     2.18197e-166
456.000     3.17752e-169
457.000     4.37769e-172
458.000     5.70585e-175
459.000     7.03580e-178
460.000     8.20775e-181
461.000     9.05841e-184
462.000     9.45796e-187
463.000     9.34245e-190
464.000     8.73055e-193
465.000     7.71863e-196
466.000     6.45589e-199
467.000     5.10846e-202
468.000     3.82420e-205
469.000     2.70838e-208
470.000     1.81466e-211
471.000     1.15027e-214
472.000     6.89798e-218
473.000     3.91346e-221
474.000     2.10048e-224
475.000     1.06658e-227
476.000     5.12371e-231
477.000     2.32860e-234
478.000     1.00120e-237
479.000     4.07255e-241
480.000     1.56721e-244
481.000     5.70570e-248
482.000     1.96520e-251
483.000     6.40356e-255
484.000     1.97403e-258
485.000     5.75711e-262
486.000     1.58845e-265
487.000     4.14628e-269
488.000     1.02391e-272
489.000     2.39212e-276
490.000     5.28714e-280
491.000     1.10555e-283
492.000     2.18701e-287
493.000     4.09300e-291
494.000     7.24687e-295
495.000     1.21388e-298
496.000     1.92363e-302
497.000     2.88392e-306
498.000     4.09036e-310
499.000     5.48857e-314
500.000     6.96744e-318
