# Gaussian folded, width=10 cm^-1
# [cm^-1] arbitrary
0.000      3.00000e+00
1.000      2.91796e+00
2.000      2.68508e+00
3.000      2.33749e+00
4.000      1.92514e+00
5.000      1.50000e+00
6.000      1.10570e+00
7.000      7.71085e-01
8.000      5.08727e-01
9.000      3.17530e-01
10.000      1.87501e-01
11.000      1.04750e-01
12.000      5.53725e-02
13.000      2.77225e-02
14.000      1.32228e-02
15.000      6.22949e-03
16.000      3.48193e-03
17.000      3.55915e-03
18.000      6.60380e-03
19.000      1.44540e-02
20.000      3.12374e-02
21.000      6.43864e-02
22.000      1.25869e-01
23.000      2.33177e-01
24.000      4.09309e-01
25.000      6.80805e-01
26.000      1.07304e+00
27.000      1.60265e+00
28.000      2.26837e+00
29.000      3.04261e+00
30.000      3.86767e+00
31.000      4.65940e+00
32.000      5.31980e+00
33.000      5.75641e+00
34.000      5.90341e+00
35.000      5.73794e+00
36.000      5.28598e+00
37.000      4.61588e+00
38.000      3.82186e+00
39.000      3.00319e+00
40.000      2.24581e+00
41.000      1.61126e+00
42.000      1.13462e+00
43.000      8.30002e-01
44.000      6.99573e-01
45.000      7.41922e-01
46.000      9.56387e-01
47.000      1.34177e+00
48.000      1.89005e+00
49.000      2.57761e+00
50.000      3.35790e+00
51.000      4.15938e+00
52.000      4.89164e+00
53.000      5.45950e+00
54.000      5.78206e+00
55.000      5.81099e+00
56.000      5.54217e+00
57.000      5.01664e+00
58.000      4.31050e+00
59.000      3.51743e+00
60.000      2.72941e+00
61.000      2.02151e+00
62.000      1.44431e+00
63.000      1.02432e+00
64.000      7.70357e-01
65.000      6.82011e-01
66.000      7.56656e-01
67.000      9.92434e-01
68.000      1.38646e+00
69.000      1.92931e+00
70.000      2.59827e+00
71.000      3.35273e+00
72.000      4.13461e+00
73.000      4.87544e+00
74.000      5.50939e+00
75.000      5.98890e+00
76.000      6.29832e+00
77.000      6.46070e+00
78.000      6.53494e+00
79.000      6.60362e+00
80.000      6.75506e+00
81.000      7.06474e+00
82.000      7.58156e+00
83.000      8.32171e+00
84.000      9.27035e+00
85.000      1.03884e+01
86.000      1.16206e+01
87.000      1.29012e+01
88.000      1.41575e+01
89.000      1.53100e+01
90.000      1.62745e+01
91.000      1.69669e+01
92.000      1.73128e+01
93.000      1.72598e+01
94.000      1.67905e+01
95.000      1.59311e+01
96.000      1.47513e+01
97.000      1.33559e+01
98.000      1.18681e+01
99.000      1.04105e+01
100.000      9.08867e+00
101.000      7.98188e+00
102.000      7.14133e+00
103.000      6.59439e+00
104.000      6.35072e+00
105.000      6.40696e+00
106.000      6.74894e+00
107.000      7.35194e+00
108.000      8.18112e+00
109.000      9.19351e+00
110.000      1.03415e+01
111.000      1.15772e+01
112.000      1.28554e+01
113.000      1.41350e+01
114.000      1.53779e+01
115.000      1.65463e+01
116.000      1.76004e+01
117.000      1.84967e+01
118.000      1.91892e+01
119.000      1.96342e+01
120.000      1.97959e+01
121.000      1.96553e+01
122.000      1.92163e+01
123.000      1.85098e+01
124.000      1.75932e+01
125.000      1.65443e+01
126.000      1.54523e+01
127.000      1.44055e+01
128.000      1.34803e+01
129.000      1.27319e+01
130.000      1.21886e+01
131.000      1.18513e+01
132.000      1.16979e+01
133.000      1.16910e+01
134.000      1.17884e+01
135.000      1.19519e+01
136.000      1.21524e+01
137.000      1.23707e+01
138.000      1.25918e+01
139.000      1.27982e+01
140.000      1.29626e+01
141.000      1.30462e+01
142.000      1.30022e+01
143.000      1.27857e+01
144.000      1.23658e+01
145.000      1.17359e+01
146.000      1.09183e+01
147.000      9.96172e+00
148.000      8.93222e+00
149.000      7.90076e+00
150.000      6.93113e+00
151.000      6.07108e+00
152.000      5.34851e+00
153.000      4.77275e+00
154.000      4.33991e+00
155.000      4.04049e+00
156.000      3.86688e+00
157.000      3.81836e+00
158.000      3.90187e+00
159.000      4.12798e+00
160.000      4.50337e+00
161.000      5.02242e+00
162.000      5.66161e+00
163.000      6.37961e+00
164.000      7.12488e+00
165.000      7.84961e+00
166.000      8.52627e+00
167.000      9.16050e+00
168.000      9.79405e+00
169.000      1.04938e+01
170.000      1.13283e+01
171.000      1.23384e+01
172.000      1.35141e+01
173.000      1.47863e+01
174.000      1.60399e+01
175.000      1.71438e+01
176.000      1.79884e+01
177.000      1.85168e+01
178.000      1.87389e+01
179.000      1.87239e+01
180.000      1.85760e+01
181.000      1.83997e+01
182.000      1.82683e+01
183.000      1.82038e+01
184.000      1.81746e+01
185.000      1.81139e+01
186.000      1.79515e+01
187.000      1.76528e+01
188.000      1.72502e+01
189.000      1.68554e+01
190.000      1.66455e+01
191.000      1.68225e+01
192.000      1.75563e+01
193.000      1.89285e+01
194.000      2.08942e+01
195.000      2.32776e+01
196.000      2.58040e+01
197.000      2.81610e+01
198.000      3.00711e+01
199.000      3.13546e+01
200.000      3.19616e+01
201.000      3.19655e+01
202.000      3.15219e+01
203.000      3.08077e+01
204.000      2.99638e+01
205.000      2.90595e+01
206.000      2.80888e+01
207.000      2.69943e+01
208.000      2.57070e+01
209.000      2.41837e+01
210.000      2.24293e+01
211.000      2.04987e+01
212.000      1.84831e+01
213.000      1.64877e+01
214.000      1.46107e+01
215.000      1.29288e+01
216.000      1.14895e+01
217.000      1.03097e+01
218.000      9.37701e+00
219.000      8.65354e+00
220.000      8.08177e+00
221.000      7.59346e+00
222.000      7.12133e+00
223.000      6.61178e+00
224.000      6.03610e+00
225.000      5.39725e+00
226.000      4.73023e+00
227.000      4.09606e+00
228.000      3.57088e+00
229.000      3.23289e+00
230.000      3.14964e+00
231.000      3.36788e+00
232.000      3.90721e+00
233.000      4.75765e+00
234.000      5.88137e+00
235.000      7.21783e+00
236.000      8.69148e+00
237.000      1.02206e+01
238.000      1.17253e+01
239.000      1.31334e+01
240.000      1.43823e+01
241.000      1.54188e+01
242.000      1.61964e+01
243.000      1.66748e+01
244.000      1.68220e+01
245.000      1.66208e+01
246.000      1.60762e+01
247.000      1.52218e+01
248.000      1.41201e+01
249.000      1.28561e+01
250.000      1.15228e+01
251.000      1.02051e+01
252.000      8.96490e+00
253.000      7.83406e+00
254.000      6.81622e+00
255.000      5.89643e+00
256.000      5.05459e+00
257.000      4.27795e+00
258.000      3.56932e+00
259.000      2.94980e+00
260.000      2.45702e+00
261.000      2.14124e+00
262.000      2.06102e+00
263.000      2.27920e+00
264.000      2.85817e+00
265.000      3.85320e+00
266.000      5.30261e+00
267.000      7.21549e+00
268.000      9.55955e+00
269.000      1.22535e+01
270.000      1.51685e+01
271.000      1.81407e+01
272.000      2.09961e+01
273.000      2.35799e+01
274.000      2.57859e+01
275.000      2.75749e+01
276.000      2.89770e+01
277.000      3.00763e+01
278.000      3.09803e+01
279.000      3.17827e+01
280.000      3.25294e+01
281.000      3.31972e+01
282.000      3.36916e+01
283.000      3.38662e+01
284.000      3.35589e+01
285.000      3.26370e+01
286.000      3.10376e+01
287.000      2.87932e+01
288.000      2.60338e+01
289.000      2.29644e+01
290.000      1.98257e+01
291.000      1.68475e+01
292.000      1.42093e+01
293.000      1.20173e+01
294.000      1.03006e+01
295.000      9.02610e+00
296.000      8.12160e+00
297.000      7.50139e+00
298.000      7.08555e+00
299.000      6.81011e+00
300.000      6.62828e+00
301.000      6.50541e+00
302.000      6.41190e+00
303.000      6.31749e+00
304.000      6.18946e+00
305.000      5.99517e+00
306.000      5.70800e+00
307.000      5.31443e+00
308.000      4.81960e+00
309.000      4.24928e+00
310.000      3.64710e+00
311.000      3.06755e+00
312.000      2.56622e+00
313.000      2.18994e+00
314.000      1.96875e+00
315.000      1.91179e+00
316.000      2.00745e+00
317.000      2.22758e+00
318.000      2.53438e+00
319.000      2.88798e+00
320.000      3.25250e+00
321.000      3.59912e+00
322.000      3.90583e+00
323.000      4.15465e+00
324.000      4.32885e+00
325.000      4.41200e+00
326.000      4.39004e+00
327.000      4.25583e+00
328.000      4.01395e+00
329.000      3.68325e+00
330.000      3.29540e+00
331.000      2.88913e+00
332.000      2.50192e+00
333.000      2.16190e+00
334.000      1.88241e+00
335.000      1.66120e+00
336.000      1.48399e+00
337.000      1.33101e+00
338.000      1.18400e+00
339.000      1.03142e+00
340.000      8.70484e-01
341.000      7.06052e-01
342.000      5.47317e-01
343.000      4.03983e-01
344.000      2.83253e-01
345.000      1.88373e-01
346.000      1.18708e-01
347.000      7.08440e-02
348.000      4.00240e-02
349.000      2.14009e-02
350.000      1.08286e-02
351.000      5.18446e-03
352.000      2.34853e-03
353.000      1.00655e-03
354.000      4.08142e-04
355.000      1.56572e-04
356.000      5.68258e-05
357.000      1.95118e-05
358.000      6.33827e-06
359.000      1.94789e-06
360.000      5.66337e-07
361.000      1.55778e-07
362.000      4.05372e-08
363.000      9.97975e-09
364.000      2.32436e-09
365.000      5.12160e-10
366.000      1.06764e-10
367.000      2.10553e-11
368.000      3.92841e-12
369.000      6.93408e-13
370.000      1.15792e-13
371.000      1.82931e-14
372.000      2.73408e-15
373.000      3.86593e-16
374.000      5.17148e-17
375.000      6.54475e-18
376.000      7.83589e-19
377.000      8.87568e-20
378.000      9.51114e-21
379.000      9.64231e-22
380.000      9.24798e-23
381.000      8.39132e-24
382.000      7.20330e-25
383.000      5.84993e-26
384.000      4.49456e-27
385.000      3.26694e-28
386.000      2.24653e-29
387.000      1.46151e-30
388.000      8.99515e-32
389.000      5.23761e-33
390.000      2.88519e-34
391.000      1.50361e-35
392.000      7.41330e-37
393.000      3.45785e-38
394.000      1.52588e-39
395.000      6.37014e-41
396.000      2.51592e-42
397.000      9.40074e-44
398.000      3.32311e-45
399.000      1.11134e-46
400.000      3.51612e-48
401.000      1.05244e-49
402.000      2.98024e-51
403.000      7.98404e-53
404.000      2.02354e-54
405.000      4.85196e-56
406.000      1.10063e-57
407.000      2.36201e-59
408.000      4.79558e-61
409.000      9.21122e-63
410.000      1.67383e-64
411.000      2.87755e-66
412.000      4.68007e-68
413.000      7.20110e-70
414.000      1.04825e-71
415.000      1.44359e-73
416.000      1.88081e-75
417.000      2.31826e-77
418.000      2.70332e-79
419.000      2.98229e-81
420.000      3.11257e-83
421.000      3.07331e-85
422.000      2.87086e-87
423.000      2.53709e-89
424.000      2.12117e-91
425.000      1.67777e-93
426.000      1.25548e-95
427.000      8.88797e-98
428.000     5.95269e-100
429.000     3.77174e-102
430.000     2.26093e-104
431.000     1.28219e-106
432.000     6.87911e-109
433.000     3.49165e-111
434.000     1.67667e-113
435.000     7.61696e-116
436.000     3.27366e-118
437.000     1.33108e-120
438.000     5.12023e-123
439.000     1.86335e-125
440.000     6.41528e-128
441.000     2.08956e-130
442.000     6.43892e-133
443.000     1.87710e-135
444.000     5.17702e-138
445.000     1.35080e-140
446.000     3.33440e-143
447.000     7.78687e-146
448.000     1.72039e-148
449.000     3.59589e-151
450.000     7.11057e-154
451.000     1.33021e-156
452.000     2.35425e-159
453.000     3.94188e-162
454.000     6.24414e-165
455.000     9.35747e-168
456.000     1.32667e-170
457.000     1.77944e-173
458.000     2.25799e-176
459.000     2.71068e-179
460.000     3.07859e-182
461.000     3.30784e-185
462.000     3.36243e-188
463.000     3.23355e-191
464.000     2.94188e-194
465.000     2.53213e-197
466.000     2.06189e-200
467.000     1.58841e-203
468.000     1.15765e-206
469.000     7.98198e-210
470.000     5.20668e-213
471.000     3.21313e-216
472.000     1.87592e-219
473.000     1.03614e-222
474.000     5.41423e-226
475.000     2.67655e-229
476.000     1.25179e-232
477.000     5.53865e-236
478.000     2.31843e-239
479.000     9.18128e-243
480.000     3.43977e-246
481.000     1.21919e-249
482.000     4.08822e-253
483.000     1.29692e-256
484.000     3.89233e-260
485.000     1.10516e-263
486.000     2.96862e-267
487.000     7.54405e-271
488.000     1.81372e-274
489.000     4.12530e-278
490.000     8.87683e-282
491.000     1.80708e-285
492.000     3.48028e-289
493.000     6.34117e-293
494.000     1.09305e-296
495.000     1.78251e-300
496.000     2.75004e-304
497.000     4.01388e-308
498.000     5.54252e-312
499.000     7.24049e-316
500.000     8.94852e-320
