# Gaussian folded, width=10 cm^-1
# [cm^-1] arbitrary
0.000      3.00000e+00
1.000      2.91796e+00
2.000      2.68508e+00
3.000      2.33749e+00
4.000      1.92514e+00
5.000      1.50000e+00
6.000      1.10570e+00
7.000      7.71085e-01
8.000      5.08727e-01
9.000      3.17530e-01
10.000      1.87501e-01
11.000      1.04748e-01
12.000      5.53671e-02
13.000      2.77052e-02
14.000      1.31711e-02
15.000      6.08341e-03
16.000      3.09165e-03
17.000      2.57383e-03
18.000      4.25366e-03
19.000      9.15986e-03
20.000      1.99781e-02
21.000      4.17893e-02
22.000      8.30966e-02
23.000      1.56875e-01
24.000      2.81149e-01
25.000      4.78375e-01
26.000      7.72856e-01
27.000      1.18571e+00
28.000      1.72765e+00
29.000      2.39103e+00
30.000      3.14350e+00
31.000      3.92638e+00
32.000      4.65983e+00
33.000      5.25527e+00
34.000      5.63267e+00
35.000      5.73817e+00
36.000      5.55670e+00
37.000      5.11556e+00
38.000      4.47784e+00
39.000      3.72795e+00
40.000      2.95399e+00
41.000      2.23228e+00
42.000      1.61790e+00
43.000      1.14254e+00
44.000      8.18680e-01
45.000      6.47057e-01
46.000      6.24268e-01
47.000      7.47755e-01
48.000      1.01669e+00
49.000      1.42872e+00
50.000      1.97383e+00
51.000      2.62760e+00
52.000      3.34671e+00
53.000      4.06894e+00
54.000      4.71908e+00
55.000      5.22019e+00
56.000      5.50767e+00
57.000      5.54252e+00
58.000      5.31988e+00
59.000      4.87018e+00
60.000      4.25264e+00
61.000      3.54320e+00
62.000      2.82028e+00
63.000      2.15260e+00
64.000      1.59173e+00
65.000      1.17040e+00
66.000      9.05548e-01
67.000      8.03745e-01
68.000      8.66190e-01
69.000      1.09115e+00
70.000      1.47293e+00
71.000      1.99808e+00
72.000      2.64069e+00
73.000      3.35950e+00
74.000      4.09916e+00
75.000      4.79694e+00
76.000      5.39415e+00
77.000      5.84962e+00
78.000      6.15138e+00
79.000      6.32228e+00
80.000      6.41716e+00
81.000      6.51142e+00
82.000      6.68412e+00
83.000      7.00044e+00
84.000      7.49882e+00
85.000      8.18597e+00
86.000      9.04011e+00
87.000      1.00197e+01
88.000      1.10734e+01
89.000      1.21470e+01
90.000      1.31869e+01
91.000      1.41387e+01
92.000      1.49461e+01
93.000      1.55515e+01
94.000      1.59008e+01
95.000      1.59522e+01
96.000      1.56870e+01
97.000      1.51182e+01
98.000      1.42947e+01
99.000      1.32972e+01
100.000      1.22273e+01
101.000      1.11909e+01
102.000      1.02804e+01
103.000      9.56110e+00
104.000      9.06504e+00
105.000      8.79333e+00
106.000      8.72589e+00
107.000      8.83385e+00
108.000      9.09010e+00
109.000      9.47451e+00
110.000      9.97301e+00
111.000      1.05725e+01
112.000      1.12546e+01
113.000      1.19926e+01
114.000      1.27508e+01
115.000      1.34885e+01
116.000      1.41650e+01
117.000      1.47443e+01
118.000      1.51996e+01
119.000      1.55156e+01
120.000      1.56899e+01
121.000      1.57337e+01
122.000      1.56699e+01
123.000      1.55300e+01
124.000      1.53486e+01
125.000      1.51573e+01
126.000      1.49783e+01
127.000      1.48206e+01
128.000      1.46789e+01
129.000      1.45362e+01
130.000      1.43687e+01
131.000      1.41520e+01
132.000      1.38667e+01
133.000      1.35024e+01
134.000      1.30589e+01
135.000      1.25455e+01
136.000      1.19788e+01
137.000      1.13800e+01
138.000      1.07730e+01
139.000      1.01821e+01
140.000      9.63138e+00
141.000      9.14234e+00
142.000      8.73219e+00
143.000      8.41099e+00
144.000      8.17922e+00
145.000      8.02654e+00
146.000      7.93266e+00
147.000      7.87063e+00
148.000      7.81207e+00
149.000      7.73313e+00
150.000      7.61957e+00
151.000      7.46964e+00
152.000      7.29395e+00
153.000      7.11221e+00
154.000      6.94749e+00
155.000      6.81926e+00
156.000      6.73699e+00
157.000      6.69612e+00
158.000      6.67806e+00
159.000      6.65466e+00
160.000      6.59625e+00
161.000      6.48078e+00
162.000      6.30124e+00
163.000      6.06882e+00
164.000      5.81106e+00
165.000      5.56594e+00
166.000      5.37413e+00
167.000      5.27159e+00
168.000      5.28411e+00
169.000      5.42428e+00
170.000      5.69067e+00
171.000      6.06893e+00
172.000      6.53462e+00
173.000      7.05754e+00
174.000      7.60697e+00
175.000      8.15695e+00
176.000      8.69028e+00
177.000      9.20042e+00
178.000      9.69080e+00
179.000      1.01720e+01
180.000      1.06581e+01
181.000      1.11622e+01
182.000      1.16931e+01
183.000      1.22524e+01
184.000      1.28329e+01
185.000      1.34177e+01
186.000      1.39831e+01
187.000      1.45020e+01
188.000      1.49502e+01
189.000      1.53126e+01
190.000      1.55873e+01
191.000      1.57871e+01
192.000      1.59369e+01
193.000      1.60687e+01
194.000      1.62162e+01
195.000      1.64101e+01
196.000      1.66744e+01
197.000      1.70244e+01
198.000      1.74648e+01
199.000      1.79888e+01
200.000      1.85764e+01
201.000      1.91941e+01
202.000      1.97960e+01
203.000      2.03268e+01
204.000      2.07269e+01
205.000      2.09395e+01
206.000      2.09182e+01
207.000      2.06354e+01
208.000      2.00891e+01
209.000      1.93059e+01
210.000      1.83400e+01
211.000      1.72680e+01
212.000      1.61782e+01
213.000      1.51592e+01
214.000      1.42876e+01
215.000      1.36194e+01
216.000      1.31842e+01
217.000      1.29843e+01
218.000      1.29964e+01
219.000      1.31772e+01
220.000      1.34700e+01
221.000      1.38130e+01
222.000      1.41486e+01
223.000      1.44304e+01
224.000      1.46300e+01
225.000      1.47379e+01
226.000      1.47626e+01
227.000      1.47257e+01
228.000      1.46561e+01
229.000      1.45853e+01
230.000      1.45436e+01
231.000      1.45572e+01
232.000      1.46466e+01
233.000      1.48240e+01
234.000      1.50910e+01
235.000      1.54373e+01
236.000      1.58414e+01
237.000      1.62737e+01
238.000      1.67020e+01
239.000      1.70978e+01
240.000      1.74419e+01
241.000      1.77276e+01
242.000      1.79607e+01
243.000      1.81551e+01
244.000      1.83271e+01
245.000      1.84874e+01
246.000      1.86351e+01
247.000      1.87538e+01
248.000      1.88123e+01
249.000      1.87688e+01
250.000      1.85801e+01
251.000      1.82103e+01
252.000      1.76409e+01
253.000      1.68766e+01
254.000      1.59463e+01
255.000      1.48992e+01
256.000      1.37961e+01
257.000      1.26984e+01
258.000      1.16581e+01
259.000      1.07109e+01
260.000      9.87375e+00
261.000      9.14650e+00
262.000      8.51590e+00
263.000      7.96057e+00
264.000      7.45550e+00
265.000      6.97610e+00
266.000      6.50223e+00
267.000      6.02298e+00
268.000      5.54141e+00
269.000      5.07814e+00
270.000      4.67151e+00
271.000      4.37292e+00
272.000      4.23720e+00
273.000      4.31006e+00
274.000      4.61582e+00
275.000      5.14922e+00
276.000      5.87398e+00
277.000      6.72857e+00
278.000      7.63754e+00
279.000      8.52501e+00
280.000      9.32652e+00
281.000      9.99645e+00
282.000      1.05101e+01
283.000      1.08612e+01
284.000      1.10572e+01
285.000      1.11135e+01
286.000      1.10493e+01
287.000      1.08842e+01
288.000      1.06358e+01
289.000      1.03177e+01
290.000      9.93852e+00
291.000      9.50180e+00
292.000      9.00736e+00
293.000      8.45524e+00
294.000      7.85079e+00
295.000      7.20954e+00
296.000      6.55945e+00
297.000      5.93868e+00
298.000      5.38849e+00
299.000      4.94292e+00
300.000      4.61864e+00
301.000      4.40873e+00
302.000      4.28296e+00
303.000      4.19482e+00
304.000      4.09324e+00
305.000      3.93513e+00
306.000      3.69524e+00
307.000      3.37086e+00
308.000      2.98068e+00
309.000      2.55924e+00
310.000      2.14885e+00
311.000      1.79132e+00
312.000      1.52128e+00
313.000      1.36202e+00
314.000      1.32409e+00
315.000      1.40642e+00
316.000      1.59910e+00
317.000      1.88698e+00
318.000      2.25310e+00
319.000      2.68122e+00
320.000      3.15737e+00
321.000      3.67046e+00
322.000      4.21264e+00
323.000      4.77963e+00
324.000      5.37096e+00
325.000      5.98950e+00
326.000      6.63957e+00
327.000      7.32355e+00
328.000      8.03755e+00
329.000      8.76798e+00
330.000      9.49094e+00
331.000      1.01757e+01
332.000      1.07920e+01
333.000      1.13194e+01
334.000      1.17546e+01
335.000      1.21142e+01
336.000      1.24301e+01
337.000      1.27387e+01
338.000      1.30671e+01
339.000      1.34219e+01
340.000      1.37838e+01
341.000      1.41112e+01
342.000      1.43519e+01
343.000      1.44583e+01
344.000      1.44006e+01
345.000      1.41739e+01
346.000      1.37975e+01
347.000      1.33069e+01
348.000      1.27421e+01
349.000      1.21382e+01
350.000      1.15200e+01
351.000      1.09026e+01
352.000      1.02974e+01
353.000      9.71719e+00
354.000      9.18085e+00
355.000      8.71158e+00
356.000      8.33148e+00
357.000      8.05374e+00
358.000      7.87603e+00
359.000      7.77828e+00
360.000      7.72579e+00
361.000      7.67712e+00
362.000      7.59395e+00
363.000      7.44991e+00
364.000      7.23553e+00
365.000      6.95819e+00
366.000      6.63749e+00
367.000      6.29781e+00
368.000      5.96078e+00
369.000      5.63986e+00
370.000      5.33868e+00
371.000      5.05311e+00
372.000      4.77581e+00
373.000      4.50118e+00
374.000      4.22868e+00
375.000      3.96331e+00
376.000      3.71320e+00
377.000      3.48594e+00
378.000      3.28516e+00
379.000      3.10926e+00
380.000      2.95267e+00
381.000      2.80902e+00
382.000      2.67458e+00
383.000      2.55040e+00
384.000      2.44206e+00
385.000      2.35727e+00
386.000      2.30245e+00
387.000      2.27989e+00
388.000      2.28658e+00
389.000      2.31498e+00
390.000      2.35519e+00
391.000      2.39740e+00
392.000      2.43357e+00
393.000      2.45802e+00
394.000      2.46675e+00
395.000      2.45632e+00
396.000      2.42274e+00
397.000      2.36110e+00
398.000      2.26616e+00
399.000      2.13379e+00
400.000      1.96273e+00
401.000      1.75612e+00
402.000      1.52213e+00
403.000      1.27327e+00
404.000      1.02448e+00
405.000      7.90582e-01
406.000      5.83684e-01
407.000      4.11431e-01
408.000      2.76413e-01
409.000      1.76744e-01
410.000      1.07437e-01
411.000      6.20259e-02
412.000      3.39837e-02
413.000      1.76595e-02
414.000      8.69916e-03
415.000      4.06064e-03
416.000      1.79551e-03
417.000      7.51876e-04
418.000      2.98112e-04
419.000      1.11896e-04
420.000      3.97552e-05
421.000      1.33682e-05
422.000      4.25417e-06
423.000      1.28112e-06
424.000      3.65067e-07
425.000      9.84344e-08
426.000      2.51129e-08
427.000      6.06194e-09
428.000      1.38446e-09
429.000      2.99155e-10
430.000      6.11581e-11
431.000      1.18290e-11
432.000      2.16458e-12
433.000      3.74739e-13
434.000      6.13778e-14
435.000      9.51084e-15
436.000      1.39428e-15
437.000      1.93377e-16
438.000      2.53734e-17
439.000      3.14974e-18
440.000      3.69905e-19
441.000      4.10985e-20
442.000      4.31997e-21
443.000      4.29589e-22
444.000      4.04153e-23
445.000      3.59712e-24
446.000      3.02889e-25
447.000      2.41285e-26
448.000      1.81842e-27
449.000      1.29651e-28
450.000      8.74535e-30
451.000      5.58079e-31
452.000      3.36923e-32
453.000      1.92435e-33
454.000      1.03981e-34
455.000      5.31551e-36
456.000      2.57070e-37
457.000      1.17618e-38
458.000      5.09117e-40
459.000      2.08486e-41
460.000      8.07707e-43
461.000      2.96039e-44
462.000      1.02650e-45
463.000      3.36737e-47
464.000      1.04505e-48
465.000      3.06834e-50
466.000      8.52288e-52
467.000      2.23968e-53
468.000      5.56807e-55
469.000      1.30961e-56
470.000      2.91403e-58
471.000      6.13429e-60
472.000      1.22167e-61
473.000      2.30175e-63
474.000      4.10282e-65
475.000      6.91869e-67
476.000      1.10378e-68
477.000      1.66594e-70
478.000      2.37877e-72
479.000      3.21340e-74
480.000      4.10671e-76
481.000      4.96524e-78
482.000      5.67943e-80
483.000      6.14592e-82
484.000      6.29197e-84
485.000      6.09402e-86
486.000      5.58391e-88
487.000      4.84051e-90
488.000      3.96973e-92
489.000      3.07999e-94
490.000      2.26076e-96
491.000      1.56992e-98
492.000     1.03138e-100
493.000     6.41025e-103
494.000     3.76921e-105
495.000     2.09674e-107
496.000     1.10346e-109
497.000     5.49393e-112
498.000     2.58779e-114
499.000     1.15317e-116
500.000     4.86154e-119
