# Gaussian folded, width=10 cm^-1
# [cm^-1] arbitrary
0.000      3.00000e+00
1.000      2.91796e+00
2.000      2.68508e+00
3.000      2.33749e+00
4.000      1.92514e+00
5.000      1.50000e+00
6.000      1.10570e+00
7.000      7.71085e-01
8.000      5.08727e-01
9.000      3.17530e-01
10.000      1.87503e-01
11.000      1.04755e-01
12.000      5.53893e-02
13.000      2.77726e-02
14.000      1.33646e-02
15.000      6.60847e-03
16.000      4.43832e-03
17.000      5.83782e-03
18.000      1.17275e-02
19.000      2.53221e-02
20.000      5.29722e-02
21.000      1.05340e-01
22.000      1.98513e-01
23.000      3.54347e-01
24.000      5.99092e-01
25.000      9.59390e-01
26.000      1.45529e+00
27.000      2.09111e+00
28.000      2.84635e+00
29.000      3.67031e+00
30.000      4.48370e+00
31.000      5.18923e+00
32.000      5.69006e+00
33.000      5.91147e+00
34.000      5.81910e+00
35.000      5.42788e+00
36.000      4.79827e+00
37.000      4.02153e+00
38.000      3.19914e+00
39.000      2.42311e+00
40.000      1.76300e+00
41.000      1.26189e+00
42.000      9.40237e-01
43.000      8.04068e-01
44.000      8.52968e-01
45.000      1.08437e+00
46.000      1.49248e+00
47.000      2.06262e+00
48.000      2.76351e+00
49.000      3.54154e+00
50.000      4.32068e+00
51.000      5.01004e+00
52.000      5.51864e+00
53.000      5.77368e+00
54.000      5.73694e+00
55.000      5.41389e+00
56.000      4.85233e+00
57.000      4.13116e+00
58.000      3.34291e+00
59.000      2.57566e+00
60.000      1.89971e+00
61.000      1.36164e+00
62.000      9.85988e-01
63.000      7.81843e-01
64.000      7.50714e-01
65.000      8.92145e-01
66.000      1.20492e+00
67.000      1.68358e+00
68.000      2.31210e+00
69.000      3.05774e+00
70.000      3.86889e+00
71.000      4.67957e+00
72.000      5.42102e+00
73.000      6.03799e+00
74.000      6.50482e+00
75.000      6.83534e+00
76.000      7.08229e+00
77.000      7.32538e+00
78.000      7.65104e+00
79.000      8.13025e+00
80.000      8.80118e+00
81.000      9.66157e+00
82.000      1.06718e+01
83.000      1.17665e+01
84.000      1.28688e+01
85.000      1.39048e+01
86.000      1.48123e+01
87.000      1.55453e+01
88.000      1.60732e+01
89.000      1.63785e+01
90.000      1.64525e+01
91.000      1.62929e+01
92.000      1.59031e+01
93.000      1.52943e+01
94.000      1.44896e+01
95.000      1.35283e+01
96.000      1.24681e+01
97.000      1.13842e+01
98.000      1.03630e+01
99.000      9.49298e+00
100.000      8.85340e+00
101.000      8.50342e+00
102.000      8.47419e+00
103.000      8.76477e+00
104.000      9.34307e+00
105.000      1.01518e+01
106.000      1.11186e+01
107.000      1.21686e+01
108.000      1.32360e+01
109.000      1.42716e+01
110.000      1.52435e+01
111.000      1.61313e+01
112.000      1.69163e+01
113.000      1.75730e+01
114.000      1.80656e+01
115.000      1.83537e+01
116.000      1.84033e+01
117.000      1.82018e+01
118.000      1.77678e+01
119.000      1.71544e+01
120.000      1.64419e+01
121.000      1.57232e+01
122.000      1.50853e+01
123.000      1.45929e+01
124.000      1.42774e+01
125.000      1.41343e+01
126.000      1.41297e+01
127.000      1.42113e+01
128.000      1.43221e+01
129.000      1.44125e+01
130.000      1.44467e+01
131.000      1.44046e+01
132.000      1.42782e+01
133.000      1.40662e+01
134.000      1.37683e+01
135.000      1.33819e+01
136.000      1.29018e+01
137.000      1.23234e+01
138.000      1.16478e+01
139.000      1.08863e+01
140.000      1.00627e+01
141.000      9.21167e+00
142.000      8.37243e+00
143.000      7.58128e+00
144.000      6.86421e+00
145.000      6.23316e+00
146.000      5.68630e+00
147.000      5.21158e+00
148.000      4.79146e+00
149.000      4.40714e+00
150.000      4.04145e+00
151.000      3.68110e+00
152.000      3.31888e+00
153.000      2.95627e+00
154.000      2.60567e+00
155.000      2.29095e+00
156.000      2.04534e+00
157.000      1.90660e+00
158.000      1.91052e+00
159.000      2.08424e+00
160.000      2.44095e+00
161.000      2.97654e+00
162.000      3.66868e+00
163.000      4.47796e+00
164.000      5.35173e+00
165.000      6.23090e+00
166.000      7.06044e+00
167.000      7.80233e+00
168.000      8.44840e+00
169.000      9.02770e+00
170.000      9.60381e+00
171.000      1.02595e+01
172.000      1.10708e+01
173.000      1.20794e+01
174.000      1.32709e+01
175.000      1.45712e+01
176.000      1.58605e+01
177.000      1.70037e+01
178.000      1.78853e+01
179.000      1.84395e+01
180.000      1.86639e+01
181.000      1.86165e+01
182.000      1.83955e+01
183.000      1.81100e+01
184.000      1.78502e+01
185.000      1.76647e+01
186.000      1.75522e+01
187.000      1.74708e+01
188.000      1.73623e+01
189.000      1.71860e+01
190.000      1.69507e+01
191.000      1.67316e+01
192.000      1.66662e+01
193.000      1.69242e+01
194.000      1.76614e+01
195.000      1.89701e+01
196.000      2.08423e+01
197.000      2.31588e+01
198.000      2.57073e+01
199.000      2.82247e+01
200.000      3.04504e+01
201.000      3.21751e+01
202.000      3.32717e+01
203.000      3.37041e+01
204.000      3.35149e+01
205.000      3.28000e+01
206.000      3.16793e+01
207.000      3.02724e+01
208.000      2.86811e+01
209.000      2.69818e+01
210.000      2.52253e+01
211.000      2.34435e+01
212.000      2.16589e+01
213.000      1.98952e+01
214.000      1.81834e+01
215.000      1.65625e+01
216.000      1.50722e+01
217.000      1.37413e+01
218.000      1.25766e+01
219.000      1.15586e+01
220.000      1.06448e+01
221.000      9.78325e+00
222.000      8.93028e+00
223.000      8.06724e+00
224.000      7.21149e+00
225.000      6.41795e+00
226.000      5.77071e+00
227.000      5.36703e+00
228.000      5.29729e+00
229.000      5.62571e+00
230.000      6.37583e+00
231.000      7.52424e+00
232.000      9.00362e+00
233.000      1.07147e+01
234.000      1.25443e+01
235.000      1.43850e+01
236.000      1.61518e+01
237.000      1.77922e+01
238.000      1.92866e+01
239.000      2.06410e+01
240.000      2.18741e+01
241.000      2.30024e+01
242.000      2.40277e+01
243.000      2.49300e+01
244.000      2.56667e+01
245.000      2.61774e+01
246.000      2.63947e+01
247.000      2.62561e+01
248.000      2.57169e+01
249.000      2.47606e+01
250.000      2.34047e+01
251.000      2.17018e+01
252.000      1.97352e+01
253.000      1.76093e+01
254.000      1.54374e+01
255.000      1.33275e+01
256.000      1.13706e+01
257.000      9.63267e+00
258.000      8.15228e+00
259.000      6.94334e+00
260.000      6.00159e+00
261.000      5.31234e+00
262.000      4.85726e+00
263.000      4.61951e+00
264.000      4.58685e+00
265.000      4.75361e+00
266.000      5.12172e+00
267.000      5.70079e+00
268.000      6.50625e+00
269.000      7.55490e+00
270.000      8.85779e+00
271.000      1.04116e+01
272.000      1.21911e+01
273.000      1.41443e+01
274.000      1.61936e+01
275.000      1.82412e+01
276.000      2.01795e+01
277.000      2.19014e+01
278.000      2.33112e+01
279.000      2.43317e+01
280.000      2.49089e+01
281.000      2.50139e+01
282.000      2.46438e+01
283.000      2.38208e+01
284.000      2.25914e+01
285.000      2.10243e+01
286.000      1.92066e+01
287.000      1.72380e+01
288.000      1.52229e+01
289.000      1.32610e+01
290.000      1.14381e+01
291.000      9.81852e+00
292.000      8.44070e+00
293.000      7.31688e+00
294.000      6.43698e+00
295.000      5.77515e+00
296.000      5.29758e+00
297.000      4.96927e+00
298.000      4.75852e+00
299.000      4.63839e+00
300.000      4.58546e+00
301.000      4.57732e+00
302.000      4.59036e+00
303.000      4.59955e+00
304.000      4.58095e+00
305.000      4.51661e+00
306.000      4.39985e+00
307.000      4.23849e+00
308.000      4.05389e+00
309.000      3.87510e+00
310.000      3.72999e+00
311.000      3.63652e+00
312.000      3.59786e+00
313.000      3.60332e+00
314.000      3.63439e+00
315.000      3.67314e+00
316.000      3.70873e+00
317.000      3.73909e+00
318.000      3.76722e+00
319.000      3.79418e+00
320.000      3.81277e+00
321.000      3.80545e+00
322.000      3.74819e+00
323.000      3.61901e+00
324.000      3.40742e+00
325.000      3.12060e+00
326.000      2.78341e+00
327.000      2.43191e+00
328.000      2.10303e+00
329.000      1.82423e+00
330.000      1.60693e+00
331.000      1.44571e+00
332.000      1.32274e+00
333.000      1.21545e+00
334.000      1.10428e+00
335.000      9.77960e-01
336.000      8.35161e-01
337.000      6.82704e-01
338.000      5.31707e-01
339.000      3.93406e-01
340.000      2.76053e-01
341.000      1.83521e-01
342.000      1.15520e-01
343.000      6.88275e-02
344.000      3.88067e-02
345.000      2.07034e-02
346.000      1.04504e-02
347.000      4.99080e-03
348.000      2.25496e-03
349.000      9.63901e-04
350.000      3.89806e-04
351.000      1.49137e-04
352.000      5.39811e-05
353.000      1.84849e-05
354.000      5.98838e-06
355.000      1.83536e-06
356.000      5.32168e-07
357.000      1.45981e-07
358.000      3.78843e-08
359.000      9.30124e-09
360.000      2.16043e-09
361.000      4.74741e-10
362.000      9.86941e-11
363.000      1.94108e-11
364.000      3.61171e-12
365.000      6.35771e-13
366.000      1.05878e-13
367.000      1.66812e-14
368.000      2.48638e-15
369.000      3.50611e-16
370.000      4.67736e-17
371.000      5.90329e-18
372.000      7.04862e-19
373.000      7.96219e-20
374.000      8.50899e-21
375.000      8.60283e-22
376.000      8.22853e-23
377.000      7.44596e-24
378.000      6.37436e-25
379.000      5.16263e-26
380.000      3.95569e-27
381.000      2.86742e-28
382.000      1.96642e-29
383.000      1.27580e-30
384.000      7.83075e-32
385.000      4.54718e-33
386.000      2.49804e-34
387.000      1.29830e-35
388.000      6.38360e-37
389.000      2.96945e-38
390.000      1.30678e-39
391.000      5.44061e-41
392.000      2.14294e-42
393.000      7.98529e-44
394.000      2.81506e-45
395.000      9.38866e-47
396.000      2.96235e-48
397.000      8.84274e-50
398.000      2.49721e-51
399.000      6.67176e-53
400.000      1.68634e-54
401.000      4.03241e-56
402.000      9.12228e-58
403.000      1.95236e-59
404.000      3.95306e-61
405.000      7.57224e-63
406.000      1.37225e-64
407.000      2.35266e-66
408.000      3.81596e-68
409.000      5.85552e-70
410.000      8.50051e-72
411.000      1.16746e-73
412.000      1.51690e-75
413.000      1.86461e-77
414.000      2.16839e-79
415.000      2.38564e-81
416.000      2.48308e-83
417.000      2.44508e-85
418.000      2.27779e-87
419.000      2.00748e-89
420.000      1.67381e-91
421.000      1.32032e-93
422.000      9.85303e-96
423.000      6.95629e-98
424.000     4.64626e-100
425.000     2.93594e-102
426.000     1.75512e-104
427.000     9.92627e-107
428.000     5.31107e-109
429.000     2.68841e-111
430.000     1.28744e-113
431.000     5.83279e-116
432.000     2.50002e-118
433.000     1.01374e-120
434.000     3.88892e-123
435.000     1.41139e-125
436.000     4.84602e-128
437.000     1.57413e-130
438.000     4.83740e-133
439.000     1.40638e-135
440.000     3.86820e-138
441.000     1.00655e-140
442.000     2.47786e-143
443.000     5.77080e-146
444.000     1.27149e-148
445.000     2.65039e-151
446.000     5.22663e-154
447.000     9.75108e-157
448.000     1.72108e-159
449.000     2.87387e-162
450.000     4.53994e-165
451.000     6.78501e-168
452.000     9.59333e-171
453.000     1.28323e-173
454.000     1.62390e-176
455.000     1.94415e-179
456.000     2.20201e-182
457.000     2.35953e-185
458.000     2.39194e-188
459.000     2.29399e-191
460.000     2.08138e-194
461.000     1.78660e-197
462.000     1.45085e-200
463.000     1.11464e-203
464.000     8.10148e-207
465.000     5.57073e-210
466.000     3.62390e-213
467.000     2.23028e-216
468.000     1.29855e-219
469.000     7.15282e-223
470.000     3.72746e-226
471.000     1.83766e-229
472.000     8.57109e-233
473.000     3.78202e-236
474.000     1.57881e-239
475.000     6.23524e-243
476.000     2.32967e-246
477.000     8.23479e-250
478.000     2.75378e-253
479.000     8.71209e-257
480.000     2.60756e-260
481.000     7.38351e-264
482.000     1.97792e-267
483.000     5.01272e-271
484.000     1.20186e-274
485.000     2.72618e-278
486.000     5.85021e-282
487.000     1.18770e-285
488.000     2.28117e-289
489.000     4.14503e-293
490.000     7.12550e-297
491.000     1.15883e-300
492.000     1.78296e-304
493.000     2.59527e-308
494.000     3.57388e-312
495.000     4.65603e-316
496.000     5.73857e-320
497.000     4.94066e-324
498.000      0.00000e+00
499.000      0.00000e+00
500.000      0.00000e+00
