# Gaussian folded, width=10 cm^-1
# [cm^-1] arbitrary
0.000      3.00000e+00
1.000      2.91796e+00
2.000      2.68508e+00
3.000      2.33749e+00
4.000      1.92514e+00
5.000      1.50000e+00
6.000      1.10570e+00
7.000      7.71085e-01
8.000      5.08727e-01
9.000      3.17530e-01
10.000      1.87503e-01
11.000      1.04754e-01
12.000      5.53874e-02
13.000      2.77673e-02
14.000      1.33507e-02
15.000      6.57401e-03
16.000      4.35870e-03
17.000      5.66580e-03
18.000      1.13810e-02
19.000      2.46736e-02
20.000      5.18504e-02
21.000      1.03561e-01
22.000      1.95958e-01
23.000      3.51102e-01
24.000      5.95634e-01
25.000      9.56758e-01
26.000      1.45515e+00
27.000      2.09556e+00
28.000      2.85750e+00
29.000      3.68956e+00
30.000      4.51096e+00
31.000      5.22247e+00
32.000      5.72532e+00
33.000      5.94359e+00
34.000      5.84295e+00
35.000      5.43966e+00
36.000      4.79648e+00
37.000      4.00720e+00
38.000      3.17524e+00
39.000      2.39356e+00
40.000      1.73150e+00
41.000      1.23110e+00
42.000      9.11620e-01
43.000      7.78276e-01
44.000      8.30660e-01
45.000      1.06708e+00
46.000      1.48316e+00
47.000      2.06545e+00
48.000      2.78289e+00
49.000      3.58047e+00
50.000      4.37890e+00
51.000      5.08290e+00
52.000      5.59719e+00
53.000      5.84636e+00
54.000      5.79237e+00
55.000      5.44389e+00
56.000      4.85425e+00
57.000      4.10858e+00
58.000      3.30486e+00
59.000      2.53487e+00
60.000      1.87044e+00
61.000      1.35793e+00
62.000      1.02009e+00
63.000      8.62519e-01
64.000      8.80839e-01
65.000      1.06550e+00
66.000      1.40296e+00
67.000      1.87385e+00
68.000      2.45018e+00
69.000      3.09391e+00
70.000      3.75917e+00
71.000      4.39824e+00
72.000      4.97065e+00
73.000      5.45277e+00
74.000      5.84506e+00
75.000      6.17450e+00
76.000      6.49086e+00
77.000      6.85736e+00
78.000      7.33757e+00
79.000      7.98182e+00
80.000      8.81604e+00
81.000      9.83586e+00
82.000      1.10067e+01
83.000      1.22691e+01
84.000      1.35474e+01
85.000      1.47596e+01
86.000      1.58248e+01
87.000      1.66700e+01
88.000      1.72347e+01
89.000      1.74747e+01
90.000      1.73669e+01
91.000      1.69130e+01
92.000      1.61425e+01
93.000      1.51125e+01
94.000      1.39026e+01
95.000      1.26068e+01
96.000      1.13222e+01
97.000      1.01387e+01
98.000      9.13220e+00
99.000      8.36047e+00
100.000      7.86419e+00
101.000      7.66884e+00
102.000      7.78649e+00
103.000      8.21557e+00
104.000      8.93848e+00
105.000      9.91835e+00
106.000      1.10971e+01
107.000      1.23972e+01
108.000      1.37282e+01
109.000      1.49980e+01
110.000      1.61257e+01
111.000      1.70538e+01
112.000      1.77541e+01
113.000      1.82259e+01
114.000      1.84874e+01
115.000      1.85625e+01
116.000      1.84685e+01
117.000      1.82107e+01
118.000      1.77853e+01
119.000      1.71904e+01
120.000      1.64409e+01
121.000      1.55808e+01
122.000      1.46863e+01
123.000      1.38574e+01
124.000      1.31988e+01
125.000      1.27960e+01
126.000      1.26928e+01
127.000      1.28797e+01
128.000      1.32949e+01
129.000      1.38387e+01
130.000      1.43962e+01
131.000      1.48604e+01
132.000      1.51503e+01
133.000      1.52202e+01
134.000      1.50583e+01
135.000      1.46791e+01
136.000      1.41135e+01
137.000      1.33988e+01
138.000      1.25728e+01
139.000      1.16701e+01
140.000      1.07220e+01
141.000      9.75652e+00
142.000      8.79946e+00
143.000      7.87496e+00
144.000      7.00529e+00
145.000      6.20999e+00
146.000      5.50403e+00
147.000      4.89526e+00
148.000      4.38213e+00
149.000      3.95272e+00
150.000      3.58644e+00
151.000      3.25869e+00
152.000      2.94775e+00
153.000      2.64188e+00
154.000      2.34440e+00
155.000      2.07486e+00
156.000      1.86586e+00
157.000      1.75655e+00
158.000      1.78465e+00
159.000      1.97903e+00
160.000      2.35411e+00
161.000      2.90666e+00
162.000      3.61480e+00
163.000      4.43911e+00
164.000      5.32626e+00
165.000      6.21585e+00
166.000      7.05108e+00
167.000      7.79237e+00
168.000      8.43067e+00
169.000      8.99553e+00
170.000      9.55255e+00
171.000      1.01877e+01
172.000      1.09811e+01
173.000      1.19779e+01
174.000      1.31663e+01
175.000      1.44732e+01
176.000      1.57777e+01
177.000      1.69421e+01
178.000      1.78467e+01
179.000      1.84211e+01
180.000      1.86589e+01
181.000      1.86164e+01
182.000      1.83931e+01
183.000      1.81027e+01
184.000      1.78419e+01
185.000      1.76650e+01
186.000      1.75724e+01
187.000      1.75182e+01
188.000      1.74351e+01
189.000      1.72717e+01
190.000      1.70282e+01
191.000      1.67792e+01
192.000      1.66702e+01
193.000      1.68870e+01
194.000      1.76052e+01
195.000      1.89339e+01
196.000      2.08728e+01
197.000      2.32970e+01
198.000      2.59747e+01
199.000      2.86134e+01
200.000      3.09208e+01
201.000      3.26617e+01
202.000      3.36968e+01
203.000      3.39949e+01
204.000      3.36198e+01
205.000      3.26996e+01
206.000      3.13905e+01
207.000      2.98437e+01
208.000      2.81821e+01
209.000      2.64884e+01
210.000      2.48051e+01
211.000      2.31430e+01
212.000      2.14968e+01
213.000      1.98612e+01
214.000      1.82445e+01
215.000      1.66736e+01
216.000      1.51885e+01
217.000      1.38296e+01
218.000      1.26218e+01
219.000      1.15637e+01
220.000      1.06263e+01
221.000      9.76347e+00
222.000      8.92935e+00
223.000      8.09756e+00
224.000      7.27512e+00
225.000      6.50661e+00
226.000      5.86758e+00
227.000      5.44941e+00
228.000      5.34009e+00
229.000      5.60581e+00
230.000      6.27722e+00
231.000      7.34302e+00
232.000      8.75140e+00
233.000      1.04187e+01
234.000      1.22436e+01
235.000      1.41235e+01
236.000      1.59706e+01
237.000      1.77234e+01
238.000      1.93513e+01
239.000      2.08509e+01
240.000      2.22349e+01
241.000      2.35167e+01
242.000      2.46943e+01
243.000      2.57398e+01
244.000      2.65955e+01
245.000      2.71810e+01
246.000      2.74074e+01
247.000      2.71971e+01
248.000      2.65031e+01
249.000      2.53223e+01
250.000      2.37011e+01
251.000      2.17297e+01
252.000      1.95294e+01
253.000      1.72336e+01
254.000      1.49703e+01
255.000      1.28471e+01
256.000      1.09426e+01
257.000      9.30318e+00
258.000      7.94573e+00
259.000      6.86261e+00
260.000      6.02859e+00
261.000      5.40834e+00
262.000      4.96411e+00
263.000      4.66382e+00
264.000      4.48913e+00
265.000      4.44248e+00
266.000      4.55099e+00
267.000      4.86516e+00
268.000      5.45032e+00
269.000      6.37139e+00
270.000      7.67336e+00
271.000      9.36264e+00
272.000      1.13948e+01
273.000      1.36737e+01
274.000      1.60624e+01
275.000      1.84042e+01
276.000      2.05469e+01
277.000      2.23635e+01
278.000      2.37627e+01
279.000      2.46906e+01
280.000      2.51228e+01
281.000      2.50561e+01
282.000      2.45028e+01
283.000      2.34915e+01
284.000      2.20728e+01
285.000      2.03243e+01
286.000      1.83514e+01
287.000      1.62803e+01
288.000      1.42427e+01
289.000      1.23586e+01
290.000      1.07201e+01
291.000      9.38140e+00
292.000      8.35651e+00
293.000      7.62409e+00
294.000      7.13647e+00
295.000      6.83042e+00
296.000      6.63759e+00
297.000      6.49336e+00
298.000      6.34392e+00
299.000      6.15102e+00
300.000      5.89424e+00
301.000      5.57053e+00
302.000      5.19109e+00
303.000      4.77653e+00
304.000      4.35151e+00
305.000      3.94034e+00
306.000      3.56452e+00
307.000      3.24223e+00
308.000      2.98917e+00
309.000      2.81928e+00
310.000      2.74409e+00
311.000      2.77047e+00
312.000      2.89725e+00
313.000      3.11229e+00
314.000      3.39165e+00
315.000      3.70188e+00
316.000      4.00501e+00
317.000      4.26480e+00
318.000      4.45230e+00
319.000      4.54922e+00
320.000      4.54845e+00
321.000      4.45268e+00
322.000      4.27204e+00
323.000      4.02190e+00
324.000      3.72118e+00
325.000      3.39068e+00
326.000      3.05105e+00
327.000      2.72016e+00
328.000      2.41043e+00
329.000      2.12723e+00
330.000      1.86907e+00
331.000      1.62993e+00
332.000      1.40280e+00
333.000      1.18308e+00
334.000      9.70579e-01
335.000      7.69357e-01
336.000      5.85984e-01
337.000      4.26989e-01
338.000      2.96694e-01
339.000      1.96127e-01
340.000      1.23133e-01
341.000      7.33338e-02
342.000      4.13971e-02
343.000      2.21371e-02
344.000      1.12095e-02
345.000      5.37331e-03
346.000      2.43786e-03
347.000      1.04671e-03
348.000      4.25258e-04
349.000      1.63480e-04
350.000      5.94617e-05
351.000      2.04626e-05
352.000      6.66229e-06
353.000      2.05220e-06
354.000      5.98061e-07
355.000      1.64891e-07
356.000      4.30101e-08
357.000      1.06137e-08
358.000      2.47788e-09
359.000      5.47288e-10
360.000      1.14359e-10
361.000      2.26070e-11
362.000      4.22798e-12
363.000      7.48070e-13
364.000      1.25219e-13
365.000      1.98296e-14
366.000      2.97082e-15
367.000      4.21072e-16
368.000      5.64617e-17
369.000      7.16258e-18
370.000      8.59612e-19
371.000      9.76008e-20
372.000      1.04839e-20
373.000      1.06539e-21
374.000      1.02426e-22
375.000      9.31606e-24
376.000      8.01625e-25
377.000      6.52571e-26
378.000      5.02576e-27
379.000      3.66179e-28
380.000      2.52408e-29
381.000      1.64600e-30
382.000      1.01549e-31
383.000      5.92701e-33
384.000      3.27277e-34
385.000      1.70967e-35
386.000      8.44943e-37
387.000      3.95057e-38
388.000      1.74747e-39
389.000      7.31270e-41
390.000      2.89510e-42
391.000      1.08434e-43
392.000      3.84226e-45
393.000      1.28803e-46
394.000      4.08489e-48
395.000      1.22561e-49
396.000      3.47892e-51
397.000      9.34227e-53
398.000      2.37344e-54
399.000      5.70456e-56
400.000      1.29713e-57
401.000      2.79037e-59
402.000      5.67883e-61
403.000      1.09338e-62
404.000      1.99161e-64
405.000      3.43205e-66
406.000      5.59526e-68
407.000      8.62988e-70
408.000      1.25924e-71
409.000      1.73831e-73
410.000      2.27020e-75
411.000      2.80491e-77
412.000      3.27862e-79
413.000      3.62561e-81
414.000      3.79305e-83
415.000      3.75417e-85
416.000      3.51526e-87
417.000      3.11399e-89
418.000      2.60973e-91
419.000      2.06915e-93
420.000      1.55205e-95
421.000      1.10137e-97
422.000     7.39407e-100
423.000     4.69623e-102
424.000     2.82185e-104
425.000     1.60411e-106
426.000     8.62687e-109
427.000     4.38925e-111
428.000     2.11273e-113
429.000     9.62090e-116
430.000     4.14481e-118
431.000     1.68932e-120
432.000     6.51383e-123
433.000     2.37617e-125
434.000     8.20045e-128
435.000     2.67741e-130
436.000     8.27009e-133
437.000     2.41670e-135
438.000     6.68117e-138
439.000     1.74743e-140
440.000     4.32380e-143
441.000     1.01216e-145
442.000     2.24155e-148
443.000     4.69642e-151
444.000     9.30899e-154
445.000     1.74564e-156
446.000     3.09690e-159
447.000     5.19775e-162
448.000     8.25318e-165
449.000     1.23978e-167
450.000     1.76192e-170
451.000     2.36889e-173
452.000     3.01315e-176
453.000     3.62590e-179
454.000     4.12788e-182
455.000     4.44587e-185
456.000     4.53005e-188
457.000     4.36684e-191
458.000     3.98244e-194
459.000     3.43597e-197
460.000     2.80457e-200
461.000     2.16572e-203
462.000     1.58217e-206
463.000     1.09351e-209
464.000     7.15009e-213
465.000     4.42300e-216
466.000     2.58845e-219
467.000     1.43311e-222
468.000     7.50651e-226
469.000     3.71975e-229
470.000     1.74384e-232
471.000     7.73425e-236
472.000     3.24524e-239
473.000     1.28823e-242
474.000     4.83789e-246
475.000     1.71885e-249
476.000     5.77745e-253
477.000     1.83719e-256
478.000     5.52697e-260
479.000     1.57304e-263
480.000     4.23553e-267
481.000     1.07893e-270
482.000     2.60016e-274
483.000     5.92818e-278
484.000     1.27868e-281
485.000     2.60927e-285
486.000     5.03725e-289
487.000     9.19995e-293
488.000     1.58963e-296
489.000     2.59850e-300
490.000     4.01854e-304
491.000     5.87938e-308
492.000     8.13789e-312
493.000     1.06564e-315
494.000     1.32014e-319
495.000     1.48220e-323
496.000      0.00000e+00
497.000      0.00000e+00
498.000      0.00000e+00
499.000      0.00000e+00
500.000      0.00000e+00
