# Gaussian folded, width=10 cm^-1
# [cm^-1] arbitrary
0.000      3.00000e+00
1.000      2.91796e+00
2.000      2.68508e+00
3.000      2.33749e+00
4.000      1.92514e+00
5.000      1.50000e+00
6.000      1.10570e+00
7.000      7.71085e-01
8.000      5.08727e-01
9.000      3.17529e-01
10.000      1.87500e-01
11.000      1.04746e-01
12.000      5.53590e-02
13.000      2.76795e-02
14.000      1.30932e-02
15.000      5.85947e-03
16.000      2.48107e-03
17.000      9.94966e-04
18.000      3.81201e-04
19.000      1.50336e-04
20.000      9.34184e-05
21.000      1.54704e-04
22.000      3.94491e-04
23.000      1.03124e-03
24.000      2.57911e-03
25.000      6.12282e-03
26.000      1.37883e-02
27.000      2.94574e-02
28.000      5.97172e-02
29.000      1.14903e-01
30.000      2.09898e-01
31.000      3.64125e-01
32.000      6.00048e-01
33.000      9.39611e-01
34.000      1.39854e+00
35.000      1.97924e+00
36.000      2.66416e+00
37.000      3.41180e+00
38.000      4.15807e+00
39.000      4.82381e+00
40.000      5.32805e+00
41.000      5.60398e+00
42.000      5.61334e+00
43.000      5.35505e+00
44.000      4.86542e+00
45.000      4.20978e+00
46.000      3.46838e+00
47.000      2.72046e+00
48.000      2.03101e+00
49.000      1.44286e+00
50.000      9.75150e-01
51.000      6.26912e-01
52.000      3.83591e-01
53.000      2.24158e-01
54.000      1.27074e-01
55.000      7.43416e-02
56.000      5.37171e-02
57.000      5.96167e-02
58.000      9.33004e-02
59.000      1.62670e-01
60.000      2.81619e-01
61.000      4.68547e-01
62.000      7.43518e-01
63.000      1.12380e+00
64.000      1.61803e+00
65.000      2.22006e+00
66.000      2.90420e+00
67.000      3.62376e+00
68.000      4.31444e+00
69.000      4.90284e+00
70.000      5.31876e+00
71.000      5.50871e+00
72.000      5.44694e+00
73.000      5.14118e+00
74.000      4.63119e+00
75.000      3.98061e+00
76.000      3.26446e+00
77.000      2.55577e+00
78.000      1.91483e+00
79.000      1.38343e+00
80.000      9.84586e-01
81.000      7.26620e-01
82.000      6.09247e-01
83.000      6.29084e-01
84.000      7.82620e-01
85.000      1.06578e+00
86.000      1.47055e+00
87.000      1.98027e+00
88.000      2.56579e+00
89.000      3.18446e+00
90.000      3.78330e+00
91.000      4.30593e+00
92.000      4.70167e+00
93.000      4.93441e+00
94.000      4.98891e+00
95.000      4.87310e+00
96.000      4.61650e+00
97.000      4.26586e+00
98.000      3.87926e+00
99.000      3.52001e+00
100.000      3.25057e+00
101.000      3.12662e+00
102.000      3.19120e+00
103.000      3.46972e+00
104.000      3.96664e+00
105.000      4.66520e+00
106.000      5.53043e+00
107.000      6.51487e+00
108.000      7.56543e+00
109.000      8.62940e+00
110.000      9.65823e+00
111.000      1.06088e+01
112.000      1.14427e+01
113.000      1.21261e+01
114.000      1.26292e+01
115.000      1.29292e+01
116.000      1.30129e+01
117.000      1.28804e+01
118.000      1.25465e+01
119.000      1.20406e+01
120.000      1.14034e+01
121.000      1.06821e+01
122.000      9.92507e+00
123.000      9.17700e+00
124.000      8.47603e+00
125.000      7.85284e+00
126.000      7.33104e+00
127.000      6.92736e+00
128.000      6.65105e+00
129.000      6.50203e+00
130.000      6.46934e+00
131.000      6.53164e+00
132.000      6.66104e+00
133.000      6.83007e+00
134.000      7.01963e+00
135.000      7.22456e+00
136.000      7.45433e+00
137.000      7.72806e+00
138.000      8.06571e+00
139.000      8.47854e+00
140.000      8.96250e+00
141.000      9.49637e+00
142.000      1.00450e+01
143.000      1.05660e+01
144.000      1.10175e+01
145.000      1.13650e+01
146.000      1.15864e+01
147.000      1.16744e+01
148.000      1.16363e+01
149.000      1.14924e+01
150.000      1.12734e+01
151.000      1.10165e+01
152.000      1.07605e+01
153.000      1.05420e+01
154.000      1.03905e+01
155.000      1.03247e+01
156.000      1.03505e+01
157.000      1.04597e+01
158.000      1.06309e+01
159.000      1.08317e+01
160.000      1.10233e+01
161.000      1.11654e+01
162.000      1.12228e+01
163.000      1.11718e+01
164.000      1.10042e+01
165.000      1.07299e+01
166.000      1.03741e+01
167.000      9.97178e+00
168.000      9.55912e+00
169.000      9.16395e+00
170.000      8.79908e+00
171.000      8.46033e+00
172.000      8.13032e+00
173.000      7.78685e+00
174.000      7.41265e+00
175.000      7.00299e+00
176.000      6.56822e+00
177.000      6.13092e+00
178.000      5.71922e+00
179.000      5.35919e+00
180.000      5.06923e+00
181.000      4.85786e+00
182.000      4.72474e+00
183.000      4.66370e+00
184.000      4.66605e+00
185.000      4.72313e+00
186.000      4.82738e+00
187.000      4.97215e+00
188.000      5.15060e+00
189.000      5.35418e+00
190.000      5.57139e+00
191.000      5.78751e+00
192.000      5.98556e+00
193.000      6.14879e+00
194.000      6.26399e+00
195.000      6.32454e+00
196.000      6.33175e+00
197.000      6.29392e+00
198.000      6.22312e+00
199.000      6.13105e+00
200.000      6.02559e+00
201.000      5.90936e+00
202.000      5.78068e+00
203.000      5.63608e+00
204.000      5.47321e+00
205.000      5.29303e+00
206.000      5.10053e+00
207.000      4.90421e+00
208.000      4.71441e+00
209.000      4.54105e+00
210.000      4.39102e+00
211.000      4.26594e+00
212.000      4.16074e+00
213.000      4.06403e+00
214.000      3.96030e+00
215.000      3.83369e+00
216.000      3.67201e+00
217.000      3.46966e+00
218.000      3.22835e+00
219.000      2.95552e+00
220.000      2.66145e+00
221.000      2.35639e+00
222.000      2.04883e+00
223.000      1.74545e+00
224.000      1.45210e+00
225.000      1.17483e+00
226.000      9.20257e-01
227.000      6.94886e-01
228.000      5.03838e-01
229.000      3.49618e-01
230.000      2.31550e-01
231.000      1.46052e-01
232.000      8.75920e-02
233.000      4.98843e-02
234.000      2.69521e-02
235.000      1.38052e-02
236.000      6.70008e-03
237.000      3.07989e-03
238.000      1.34054e-03
239.000      5.52360e-04
240.000      2.15421e-04
241.000      7.95108e-05
242.000      2.77714e-05
243.000      9.17856e-06
244.000      2.87034e-06
245.000      8.49297e-07
246.000      2.37761e-07
247.000      6.29762e-08
248.000      1.57898e-08
249.000      3.78952e-09
250.000      1.08216e-09
251.000      1.33730e-09
252.000      5.26816e-09
253.000      2.23520e-08
254.000      9.02867e-08
255.000      3.45147e-07
256.000      1.24837e-06
257.000      4.27207e-06
258.000      1.38323e-05
259.000      4.23752e-05
260.000      1.22829e-04
261.000      3.36879e-04
262.000      8.74264e-04
263.000      2.14699e-03
264.000      4.98962e-03
265.000      1.09750e-02
266.000      2.28509e-02
267.000      4.50475e-02
268.000      8.41106e-02
269.000      1.48819e-01
270.000      2.49690e-01
271.000      3.97678e-01
272.000      6.02126e-01
273.000      8.68506e-01
274.000      1.19681e+00
275.000      1.58162e+00
276.000      2.01412e+00
277.000      2.48566e+00
278.000      2.99084e+00
279.000      3.52793e+00
280.000      4.09529e+00
281.000      4.68432e+00
282.000      5.27222e+00
283.000      5.81920e+00
284.000      6.27390e+00
285.000      6.58769e+00
286.000      6.73411e+00
287.000      6.72618e+00
288.000      6.62417e+00
289.000      6.52901e+00
290.000      6.56174e+00
291.000      6.83468e+00
292.000      7.42289e+00
293.000      8.34435e+00
294.000      9.55416e+00
295.000      1.09533e+01
296.000      1.24085e+01
297.000      1.37758e+01
298.000      1.49240e+01
299.000      1.57504e+01
300.000      1.61914e+01
301.000      1.62263e+01
302.000      1.58786e+01
303.000      1.52137e+01
304.000      1.43350e+01
305.000      1.33734e+01
306.000      1.24714e+01
307.000      1.17599e+01
308.000      1.13341e+01
309.000      1.12329e+01
310.000      1.14295e+01
311.000      1.18375e+01
312.000      1.23306e+01
313.000      1.27737e+01
314.000      1.30549e+01
315.000      1.31125e+01
316.000      1.29493e+01
317.000      1.26322e+01
318.000      1.22776e+01
319.000      1.20276e+01
320.000      1.20223e+01
321.000      1.23746e+01
322.000      1.31538e+01
323.000      1.43793e+01
324.000      1.60239e+01
325.000      1.80241e+01
326.000      2.02916e+01
327.000      2.27241e+01
328.000      2.52110e+01
329.000      2.76383e+01
330.000      2.98909e+01
331.000      3.18570e+01
332.000      3.34340e+01
333.000      3.45374e+01
334.000      3.51097e+01
335.000      3.51292e+01
336.000      3.46168e+01
337.000      3.36367e+01
338.000      3.22926e+01
339.000      3.07166e+01
340.000      2.90542e+01
341.000      2.74471e+01
342.000      2.60185e+01
343.000      2.48618e+01
344.000      2.40371e+01
345.000      2.35720e+01
346.000      2.34671e+01
347.000      2.37016e+01
348.000      2.42375e+01
349.000      2.50193e+01
350.000      2.59734e+01
351.000      2.70074e+01
352.000      2.80147e+01
353.000      2.88845e+01
354.000      2.95170e+01
355.000      2.98375e+01
356.000      2.98074e+01
357.000      2.94251e+01
358.000      2.87204e+01
359.000      2.77423e+01
360.000      2.65456e+01
361.000      2.51808e+01
362.000      2.36880e+01
363.000      2.20971e+01
364.000      2.04313e+01
365.000      1.87121e+01
366.000      1.69654e+01
367.000      1.52252e+01
368.000      1.35343e+01
369.000      1.19418e+01
370.000      1.04980e+01
371.000      9.24751e+00
372.000      8.22442e+00
373.000      7.44854e+00
374.000      6.92512e+00
375.000      6.64637e+00
376.000      6.59459e+00
377.000      6.74646e+00
378.000      7.07868e+00
379.000      7.57464e+00
380.000      8.23043e+00
381.000      9.05732e+00
382.000      1.00774e+01
383.000      1.13119e+01
384.000      1.27641e+01
385.000      1.44050e+01
386.000      1.61670e+01
387.000      1.79526e+01
388.000      1.96547e+01
389.000      2.11814e+01
390.000      2.24752e+01
391.000      2.35164e+01
392.000      2.43102e+01
393.000      2.48630e+01
394.000      2.51586e+01
395.000      2.51476e+01
396.000      2.47538e+01
397.000      2.38983e+01
398.000      2.25308e+01
399.000      2.06579e+01
400.000      1.83559e+01
401.000      1.57654e+01
402.000      1.30683e+01
403.000      1.04544e+01
404.000      8.08844e+00
405.000      6.08546e+00
406.000      4.49932e+00
407.000      3.32556e+00
408.000      2.51518e+00
409.000      1.99426e+00
410.000      1.68395e+00
411.000      1.51622e+00
412.000      1.44293e+00
413.000      1.43743e+00
414.000      1.48993e+00
415.000      1.59942e+00
416.000      1.76521e+00
417.000      1.98103e+00
418.000      2.23319e+00
419.000      2.50257e+00
420.000      2.76884e+00
421.000      3.01438e+00
422.000      3.22600e+00
423.000      3.39397e+00
424.000      3.50936e+00
425.000      3.56174e+00
426.000      3.53911e+00
427.000      3.43054e+00
428.000      3.23064e+00
429.000      2.94381e+00
430.000      2.58616e+00
431.000      2.18418e+00
432.000      1.77038e+00
433.000      1.37747e+00
434.000      1.03309e+00
435.000      7.56532e-01
436.000      5.57790e-01
437.000      4.38638e-01
438.000      3.94487e-01
439.000      4.16027e-01
440.000      4.90129e-01
441.000      6.00161e-01
442.000      7.26413e-01
443.000      8.47388e-01
444.000      9.42281e-01
445.000      9.94285e-01
446.000      9.93767e-01
447.000      9.40124e-01
448.000      8.41564e-01
449.000      7.12755e-01
450.000      5.71116e-01
451.000      4.32944e-01
452.000      3.10498e-01
453.000      2.10671e-01
454.000      1.35228e-01
455.000      8.21199e-02
456.000      4.71788e-02
457.000      2.56427e-02
458.000      1.31855e-02
459.000      6.41430e-03
460.000      2.95202e-03
461.000      1.28530e-03
462.000      5.29432e-04
463.000      2.06316e-04
464.000      7.60627e-05
465.000      2.65295e-05
466.000      8.75395e-06
467.000      2.73273e-06
468.000      8.07061e-07
469.000      2.25493e-07
470.000      5.96045e-08
471.000      1.49053e-08
472.000      3.52633e-09
473.000      7.89261e-10
474.000      1.67123e-10
475.000      3.34788e-11
476.000      6.34484e-12
477.000      1.13760e-12
478.000      1.92963e-13
479.000      3.09655e-14
480.000      4.70110e-15
481.000      6.75210e-16
482.000      9.17477e-17
483.000      1.17942e-17
484.000      1.43437e-18
485.000      1.65033e-19
486.000      1.79637e-20
487.000      1.84987e-21
488.000      1.80220e-22
489.000      1.66105e-23
490.000      1.44837e-24
491.000      1.19480e-25
492.000      9.32455e-27
493.000      6.88459e-28
494.000      4.80890e-29
495.000      3.17783e-30
496.000      1.98671e-31
497.000      1.17504e-32
498.000      6.57495e-34
499.000      3.48055e-35
500.000      1.74310e-36
