# Gaussian folded, width=10 cm^-1
# [cm^-1] arbitrary
0.000      3.00000e+00
1.000      2.91796e+00
2.000      2.68508e+00
3.000      2.33749e+00
4.000      1.92514e+00
5.000      1.50000e+00
6.000      1.10570e+00
7.000      7.71085e-01
8.000      5.08727e-01
9.000      3.17530e-01
10.000      1.87500e-01
11.000      1.04746e-01
12.000      5.53613e-02
13.000      2.76873e-02
14.000      1.31182e-02
15.000      5.93568e-03
16.000      2.70135e-03
17.000      1.59854e-03
18.000      1.94921e-03
19.000      4.01253e-03
20.000      9.11325e-03
21.000      2.01276e-02
22.000      4.23261e-02
23.000      8.44885e-02
24.000      1.60029e-01
25.000      2.87622e-01
26.000      4.90561e-01
27.000      7.94047e-01
28.000      1.21986e+00
29.000      1.77872e+00
30.000      2.46187e+00
31.000      3.23444e+00
32.000      4.03394e+00
33.000      4.77601e+00
34.000      5.36806e+00
35.000      5.72784e+00
36.000      5.80213e+00
37.000      5.57964e+00
38.000      5.09383e+00
39.000      4.41469e+00
40.000      3.63235e+00
41.000      2.83774e+00
42.000      2.10623e+00
43.000      1.48812e+00
44.000      1.00731e+00
45.000      6.66537e-01
46.000      4.56380e-01
47.000      3.64551e-01
48.000      3.83115e-01
49.000      5.12085e-01
50.000      7.58878e-01
51.000      1.13385e+00
52.000      1.64284e+00
53.000      2.27832e+00
54.000      3.01170e+00
55.000      3.78958e+00
56.000      4.53646e+00
57.000      5.16477e+00
58.000      5.59091e+00
59.000      5.75312e+00
60.000      5.62614e+00
61.000      5.22780e+00
62.000      4.61518e+00
63.000      3.87184e+00
64.000      3.09008e+00
65.000      2.35407e+00
66.000      1.72831e+00
67.000      1.25368e+00
68.000      9.50138e-01
69.000      8.23221e-01
70.000      8.70447e-01
71.000      1.08489e+00
72.000      1.45463e+00
73.000      1.95910e+00
74.000      2.56463e+00
75.000      3.22244e+00
76.000      3.87154e+00
77.000      4.44727e+00
78.000      4.89406e+00
79.000      5.17891e+00
80.000      5.30149e+00
81.000      5.29746e+00
82.000      5.23351e+00
83.000      5.19539e+00
84.000      5.27174e+00
85.000      5.53748e+00
86.000      6.04031e+00
87.000      6.79281e+00
88.000      7.77129e+00
89.000      8.92126e+00
90.000      1.01681e+01
91.000      1.14301e+01
92.000      1.26304e+01
93.000      1.37053e+01
94.000      1.46062e+01
95.000      1.52971e+01
96.000      1.57497e+01
97.000      1.59397e+01
98.000      1.58479e+01
99.000      1.54655e+01
100.000      1.48021e+01
101.000      1.38934e+01
102.000      1.28029e+01
103.000      1.16169e+01
104.000      1.04332e+01
105.000      9.34680e+00
106.000      8.43642e+00
107.000      7.75652e+00
108.000      7.33568e+00
109.000      7.18087e+00
110.000      7.28491e+00
111.000      7.63361e+00
112.000      8.20988e+00
113.000      8.99382e+00
114.000      9.95944e+00
115.000      1.10702e+01
116.000      1.22758e+01
117.000      1.35120e+01
118.000      1.47050e+01
119.000      1.57789e+01
120.000      1.66655e+01
121.000      1.73139e+01
122.000      1.76980e+01
123.000      1.78200e+01
124.000      1.77088e+01
125.000      1.74141e+01
126.000      1.69968e+01
127.000      1.65180e+01
128.000      1.60295e+01
129.000      1.55666e+01
130.000      1.51457e+01
131.000      1.47657e+01
132.000      1.44124e+01
133.000      1.40644e+01
134.000      1.36987e+01
135.000      1.32965e+01
136.000      1.28466e+01
137.000      1.23492e+01
138.000      1.18172e+01
139.000      1.12753e+01
140.000      1.07556e+01
141.000      1.02911e+01
142.000      9.90678e+00
143.000      9.61192e+00
144.000      9.39623e+00
145.000      9.23123e+00
146.000      9.07699e+00
147.000      8.89201e+00
148.000      8.64333e+00
149.000      8.31381e+00
150.000      7.90503e+00
151.000      7.43561e+00
152.000      6.93645e+00
153.000      6.44458e+00
154.000      5.99754e+00
155.000      5.62906e+00
156.000      5.36620e+00
157.000      5.22717e+00
158.000      5.21929e+00
159.000      5.33686e+00
160.000      5.55930e+00
161.000      5.85086e+00
162.000      6.16273e+00
163.000      6.43834e+00
164.000      6.62140e+00
165.000      6.66529e+00
166.000      6.54186e+00
167.000      6.24739e+00
168.000      5.80385e+00
169.000      5.25504e+00
170.000      4.65827e+00
171.000      4.07377e+00
172.000      3.55477e+00
173.000      3.14056e+00
174.000      2.85391e+00
175.000      2.70257e+00
176.000      2.68322e+00
177.000      2.78616e+00
178.000      2.99919e+00
179.000      3.31022e+00
180.000      3.70868e+00
181.000      4.18604e+00
182.000      4.73578e+00
183.000      5.35259e+00
184.000      6.03099e+00
185.000      6.76333e+00
186.000      7.53780e+00
187.000      8.33689e+00
188.000      9.13701e+00
189.000      9.90949e+00
190.000      1.06233e+01
191.000      1.12492e+01
192.000      1.17643e+01
193.000      1.21571e+01
194.000      1.24301e+01
195.000      1.26000e+01
196.000      1.26949e+01
197.000      1.27488e+01
198.000      1.27955e+01
199.000      1.28632e+01
200.000      1.29712e+01
201.000      1.31295e+01
202.000      1.33397e+01
203.000      1.35969e+01
204.000      1.38920e+01
205.000      1.42135e+01
206.000      1.45480e+01
207.000      1.48816e+01
208.000      1.51991e+01
209.000      1.54835e+01
210.000      1.57154e+01
211.000      1.58726e+01
212.000      1.59319e+01
213.000      1.58711e+01
214.000      1.56736e+01
215.000      1.53326e+01
216.000      1.48546e+01
217.000      1.42625e+01
218.000      1.35962e+01
219.000      1.29104e+01
220.000      1.22711e+01
221.000      1.17478e+01
222.000      1.14041e+01
223.000      1.12877e+01
224.000      1.14205e+01
225.000      1.17938e+01
226.000      1.23674e+01
227.000      1.30753e+01
228.000      1.38361e+01
229.000      1.45657e+01
230.000      1.51901e+01
231.000      1.56553e+01
232.000      1.59323e+01
233.000      1.60177e+01
234.000      1.59302e+01
235.000      1.57042e+01
236.000      1.53836e+01
237.000      1.50157e+01
238.000      1.46452e+01
239.000      1.43084e+01
240.000      1.40279e+01
241.000      1.38090e+01
242.000      1.36388e+01
243.000      1.34915e+01
244.000      1.33363e+01
245.000      1.31485e+01
246.000      1.29176e+01
247.000      1.26502e+01
248.000      1.23652e+01
249.000      1.20834e+01
250.000      1.18161e+01
251.000      1.15573e+01
252.000      1.12838e+01
253.000      1.09627e+01
254.000      1.05643e+01
255.000      1.00750e+01
256.000      9.50476e+00
257.000      8.88785e+00
258.000      8.27641e+00
259.000      7.72930e+00
260.000      7.29979e+00
261.000      7.02502e+00
262.000      6.91894e+00
263.000      6.96970e+00
264.000      7.14132e+00
265.000      7.37916e+00
266.000      7.61813e+00
267.000      7.79246e+00
268.000      7.84523e+00
269.000      7.73635e+00
270.000      7.44735e+00
271.000      6.98260e+00
272.000      6.36692e+00
273.000      5.64017e+00
274.000      4.85039e+00
275.000      4.04663e+00
276.000      3.27291e+00
277.000      2.56410e+00
278.000      1.94381e+00
279.000      1.42441e+00
280.000      1.00829e+00
281.000      6.90233e-01
282.000      4.60196e-01
283.000      3.06172e-01
284.000      2.16815e-01
285.000      1.83450e-01
286.000      2.01180e-01
287.000      2.68934e-01
288.000      3.88419e-01
289.000      5.62216e-01
290.000      7.91412e-01
291.000      1.07334e+00
292.000      1.39995e+00
293.000      1.75732e+00
294.000      2.12637e+00
295.000      2.48488e+00
296.000      2.81050e+00
297.000      3.08424e+00
298.000      3.29389e+00
299.000      3.43664e+00
300.000      3.52007e+00
301.000      3.56093e+00
302.000      3.58186e+00
303.000      3.60649e+00
304.000      3.65448e+00
305.000      3.73794e+00
306.000      3.86045e+00
307.000      4.01882e+00
308.000      4.20679e+00
309.000      4.41894e+00
310.000      4.65328e+00
311.000      4.91174e+00
312.000      5.19882e+00
313.000      5.51945e+00
314.000      5.87730e+00
315.000      6.27410e+00
316.000      6.70978e+00
317.000      7.18317e+00
318.000      7.69277e+00
319.000      8.23783e+00
320.000      8.81971e+00
321.000      9.44347e+00
322.000      1.01188e+01
323.000      1.08588e+01
324.000      1.16774e+01
325.000      1.25836e+01
326.000      1.35776e+01
327.000      1.46477e+01
328.000      1.57720e+01
329.000      1.69227e+01
330.000      1.80711e+01
331.000      1.91924e+01
332.000      2.02665e+01
333.000      2.12772e+01
334.000      2.22088e+01
335.000      2.30450e+01
336.000      2.37689e+01
337.000      2.43652e+01
338.000      2.48235e+01
339.000      2.51408e+01
340.000      2.53218e+01
341.000      2.53767e+01
342.000      2.53178e+01
343.000      2.51548e+01
344.000      2.48912e+01
345.000      2.45222e+01
346.000      2.40353e+01
347.000      2.34141e+01
348.000      2.26443e+01
349.000      2.17210e+01
350.000      2.06553e+01
351.000      1.94768e+01
352.000      1.82321e+01
353.000      1.69790e+01
354.000      1.57773e+01
355.000      1.46793e+01
356.000      1.37216e+01
357.000      1.29200e+01
358.000      1.22689e+01
359.000      1.17446e+01
360.000      1.13127e+01
361.000      1.09366e+01
362.000      1.05870e+01
363.000      1.02459e+01
364.000      9.90767e+00
365.000      9.57421e+00
366.000      9.24807e+00
367.000      8.92642e+00
368.000      8.59890e+00
369.000      8.25036e+00
370.000      7.86698e+00
371.000      7.44281e+00
372.000      6.98348e+00
373.000      6.50599e+00
374.000      6.03501e+00
375.000      5.59812e+00
376.000      5.22213e+00
377.000      4.93147e+00
378.000      4.74822e+00
379.000      4.69202e+00
380.000      4.77852e+00
381.000      5.01593e+00
382.000      5.40052e+00
383.000      5.91272e+00
384.000      6.51563e+00
385.000      7.15681e+00
386.000      7.77329e+00
387.000      8.29921e+00
388.000      8.67439e+00
389.000      8.85269e+00
390.000      8.80841e+00
391.000      8.53979e+00
392.000      8.06879e+00
393.000      7.43710e+00
394.000      6.69915e+00
395.000      5.91351e+00
396.000      5.13444e+00
397.000      4.40524e+00
398.000      3.75441e+00
399.000      3.19520e+00
400.000      2.72803e+00
401.000      2.34499e+00
402.000      2.03483e+00
403.000      1.78711e+00
404.000      1.59423e+00
405.000      1.45092e+00
406.000      1.35193e+00
407.000      1.28924e+00
408.000      1.25044e+00
409.000      1.21939e+00
410.000      1.17907e+00
411.000      1.11568e+00
412.000      1.02208e+00
413.000      8.99415e-01
414.000      7.56150e-01
415.000      6.05167e-01
416.000      4.60002e-01
417.000      3.31609e-01
418.000      2.26504e-01
419.000      1.46506e-01
420.000      8.97041e-02
421.000      5.19813e-02
422.000      2.85036e-02
423.000      1.47888e-02
424.000      7.25974e-03
425.000      3.37172e-03
426.000      1.48155e-03
427.000      6.15893e-04
428.000      2.42225e-04
429.000      9.01268e-05
430.000      3.17255e-05
431.000      1.05653e-05
432.000      3.32870e-06
433.000      9.92169e-07
434.000      2.79778e-07
435.000      7.46380e-08
436.000      1.88375e-08
437.000      4.49786e-09
438.000      1.01603e-09
439.000      2.17131e-10
440.000      4.38992e-11
441.000      8.39670e-12
442.000      1.51942e-12
443.000      2.60115e-13
444.000      4.21280e-14
445.000      6.45496e-15
446.000      9.35694e-16
447.000      1.28319e-16
448.000      1.66482e-17
449.000      2.04343e-18
450.000      2.37285e-19
451.000      2.60675e-20
452.000      2.70922e-21
453.000      2.66384e-22
454.000      2.47793e-23
455.000      2.18066e-24
456.000      1.81553e-25
457.000      1.43001e-26
458.000      1.06559e-27
459.000      7.51205e-29
460.000      5.01008e-30
461.000      3.16118e-31
462.000      1.88700e-32
463.000      1.06564e-33
464.000      5.69334e-35
465.000      2.87768e-36
466.000      1.37605e-37
467.000      6.22507e-39
468.000      2.66423e-40
469.000      1.07874e-41
470.000      4.13218e-43
471.000      1.49747e-44
472.000      5.13401e-46
473.000      1.66522e-47
474.000      5.10982e-49
475.000      1.48339e-50
476.000      4.07403e-52
477.000      1.05855e-53
478.000      2.60204e-55
479.000      6.05110e-57
480.000      1.33129e-58
481.000      2.77096e-60
482.000      5.45636e-62
483.000      1.01647e-63
484.000      1.79145e-65
485.000      2.98697e-67
486.000      4.71167e-69
487.000      7.03131e-71
488.000      9.92695e-73
489.000      1.32591e-74
490.000      1.67543e-76
491.000      2.00290e-78
492.000      2.26522e-80
493.000      2.42369e-82
494.000      2.45336e-84
495.000      2.34944e-86
496.000      2.12855e-88
497.000      1.82441e-90
498.000      1.47937e-92
499.000      1.13488e-94
500.000      8.23648e-97
