# Gaussian folded, width=10 cm^-1
# [cm^-1] arbitrary
0.000      3.00000e+00
1.000      2.91796e+00
2.000      2.68508e+00
3.000      2.33749e+00
4.000      1.92514e+00
5.000      1.50000e+00
6.000      1.10570e+00
7.000      7.71085e-01
8.000      5.08727e-01
9.000      3.17530e-01
10.000      1.87500e-01
11.000      1.04746e-01
12.000      5.53611e-02
13.000      2.76866e-02
14.000      1.31161e-02
15.000      5.92993e-03
16.000      2.68669e-03
17.000      1.56348e-03
18.000      1.87051e-03
19.000      3.84703e-03
20.000      8.78765e-03
21.000      1.95294e-02
22.000      4.13027e-02
23.000      8.28633e-02
24.000      1.57645e-01
25.000      2.84412e-01
26.000      4.86641e-01
27.000      7.89782e-01
28.000      1.21588e+00
29.000      1.77582e+00
30.000      2.46083e+00
31.000      3.23578e+00
32.000      4.03765e+00
33.000      4.78154e+00
34.000      5.37440e+00
35.000      5.73382e+00
36.000      5.80675e+00
37.000      5.58237e+00
38.000      5.09466e+00
39.000      4.41409e+00
40.000      3.63101e+00
41.000      2.83636e+00
42.000      2.10542e+00
43.000      1.48838e+00
44.000      1.00920e+00
45.000      6.70858e-01
46.000      4.64337e-01
47.000      3.77733e-01
48.000      4.03173e-01
49.000      5.39994e-01
50.000      7.93794e-01
51.000      1.17180e+00
52.000      1.67572e+00
53.000      2.29400e+00
54.000      2.99581e+00
55.000      3.72908e+00
56.000      4.42433e+00
57.000      5.00428e+00
58.000      5.39747e+00
59.000      5.55247e+00
60.000      5.44879e+00
61.000      5.10129e+00
62.000      4.55684e+00
63.000      3.88436e+00
64.000      3.16137e+00
65.000      2.46075e+00
66.000      1.84113e+00
67.000      1.34282e+00
68.000      9.88967e-01
69.000      7.90431e-01
70.000      7.51606e-01
71.000      8.74632e-01
72.000      1.16016e+00
73.000      1.60426e+00
74.000      2.19255e+00
75.000      2.89409e+00
76.000      3.65819e+00
77.000      4.41691e+00
78.000      5.09459e+00
79.000      5.62314e+00
80.000      5.95952e+00
81.000      6.09996e+00
82.000      6.08580e+00
83.000      5.99789e+00
84.000      5.93997e+00
85.000      6.01529e+00
86.000      6.30305e+00
87.000      6.84131e+00
88.000      7.62115e+00
89.000      8.59253e+00
90.000      9.67899e+00
91.000      1.07957e+01
92.000      1.18651e+01
93.000      1.28264e+01
94.000      1.36375e+01
95.000      1.42717e+01
96.000      1.47114e+01
97.000      1.49438e+01
98.000      1.49581e+01
99.000      1.47487e+01
100.000      1.43189e+01
101.000      1.36874e+01
102.000      1.28912e+01
103.000      1.19856e+01
104.000      1.10389e+01
105.000      1.01231e+01
106.000      9.30469e+00
107.000      8.63583e+00
108.000      8.15168e+00
109.000      7.87202e+00
110.000      7.80664e+00
111.000      7.96112e+00
112.000      8.33974e+00
113.000      8.94352e+00
114.000      9.76410e+00
115.000      1.07761e+01
116.000      1.19318e+01
117.000      1.31617e+01
118.000      1.43818e+01
119.000      1.55062e+01
120.000      1.64616e+01
121.000      1.71982e+01
122.000      1.76946e+01
123.000      1.79553e+01
124.000      1.80023e+01
125.000      1.78657e+01
126.000      1.75754e+01
127.000      1.71573e+01
128.000      1.66336e+01
129.000      1.60257e+01
130.000      1.53581e+01
131.000      1.46603e+01
132.000      1.39665e+01
133.000      1.33131e+01
134.000      1.27348e+01
135.000      1.22595e+01
136.000      1.19044e+01
137.000      1.16721e+01
138.000      1.15503e+01
139.000      1.15130e+01
140.000      1.15254e+01
141.000      1.15504e+01
142.000      1.15545e+01
143.000      1.15124e+01
144.000      1.14077e+01
145.000      1.12311e+01
146.000      1.09771e+01
147.000      1.06411e+01
148.000      1.02191e+01
149.000      9.71057e+00
150.000      9.12192e+00
151.000      8.47012e+00
152.000      7.78275e+00
153.000      7.09473e+00
154.000      6.44231e+00
155.000      5.85674e+00
156.000      5.35966e+00
157.000      4.96152e+00
158.000      4.66259e+00
159.000      4.45544e+00
160.000      4.32740e+00
161.000      4.26244e+00
162.000      4.24259e+00
163.000      4.24962e+00
164.000      4.26719e+00
165.000      4.28323e+00
166.000      4.29157e+00
167.000      4.29184e+00
168.000      4.28781e+00
169.000      4.28460e+00
170.000      4.28647e+00
171.000      4.29623e+00
172.000      4.31653e+00
173.000      4.35212e+00
174.000      4.41149e+00
175.000      4.50642e+00
176.000      4.64913e+00
177.000      4.84781e+00
178.000      5.10249e+00
179.000      5.40297e+00
180.000      5.73007e+00
181.000      6.06008e+00
182.000      6.37113e+00
183.000      6.64971e+00
184.000      6.89531e+00
185.000      7.12170e+00
186.000      7.35426e+00
187.000      7.62348e+00
188.000      7.95632e+00
189.000      8.36754e+00
190.000      8.85375e+00
191.000      9.39232e+00
192.000      9.94592e+00
193.000      1.04716e+01
194.000      1.09316e+01
195.000      1.13019e+01
196.000      1.15771e+01
197.000      1.17680e+01
198.000      1.18966e+01
199.000      1.19880e+01
200.000      1.20643e+01
201.000      1.21409e+01
202.000      1.22263e+01
203.000      1.23221e+01
204.000      1.24250e+01
205.000      1.25274e+01
206.000      1.26194e+01
207.000      1.26906e+01
208.000      1.27330e+01
209.000      1.27440e+01
210.000      1.27268e+01
211.000      1.26896e+01
212.000      1.26417e+01
213.000      1.25894e+01
214.000      1.25324e+01
215.000      1.24633e+01
216.000      1.23705e+01
217.000      1.22448e+01
218.000      1.20872e+01
219.000      1.19156e+01
220.000      1.17665e+01
221.000      1.16917e+01
222.000      1.17480e+01
223.000      1.19836e+01
224.000      1.24239e+01
225.000      1.30625e+01
226.000      1.38590e+01
227.000      1.47438e+01
228.000      1.56303e+01
229.000      1.64292e+01
230.000      1.70628e+01
231.000      1.74755e+01
232.000      1.76403e+01
233.000      1.75597e+01
234.000      1.72635e+01
235.000      1.68016e+01
236.000      1.62370e+01
237.000      1.56357e+01
238.000      1.50580e+01
239.000      1.45505e+01
240.000      1.41411e+01
241.000      1.38373e+01
242.000      1.36294e+01
243.000      1.34969e+01
244.000      1.34162e+01
245.000      1.33676e+01
246.000      1.33380e+01
247.000      1.33190e+01
248.000      1.32997e+01
249.000      1.32607e+01
250.000      1.31691e+01
251.000      1.29822e+01
252.000      1.26562e+01
253.000      1.21604e+01
254.000      1.14900e+01
255.000      1.06730e+01
256.000      9.76797e+00
257.000      8.85379e+00
258.000      8.01366e+00
259.000      7.31939e+00
260.000      6.81977e+00
261.000      6.53537e+00
262.000      6.45938e+00
263.000      6.56211e+00
264.000      6.79660e+00
265.000      7.10336e+00
266.000      7.41447e+00
267.000      7.65822e+00
268.000      7.76587e+00
269.000      7.68112e+00
270.000      7.37065e+00
271.000      6.83276e+00
272.000      6.10059e+00
273.000      5.23790e+00
274.000      4.32795e+00
275.000      3.45818e+00
276.000      2.70502e+00
277.000      2.12234e+00
278.000      1.73545e+00
279.000      1.54070e+00
280.000      1.50954e+00
281.000      1.59534e+00
282.000      1.74194e+00
283.000      1.89305e+00
284.000      2.00161e+00
285.000      2.03768e+00
286.000      1.99333e+00
287.000      1.88317e+00
288.000      1.74023e+00
289.000      1.60788e+00
290.000      1.53009e+00
291.000      1.54202e+00
292.000      1.66316e+00
293.000      1.89424e+00
294.000      2.21811e+00
295.000      2.60440e+00
296.000      3.01657e+00
297.000      3.42002e+00
298.000      3.78923e+00
299.000      4.11209e+00
300.000      4.39021e+00
301.000      4.63511e+00
302.000      4.86156e+00
303.000      5.08062e+00
304.000      5.29509e+00
305.000      5.49944e+00
306.000      5.68433e+00
307.000      5.84378e+00
308.000      5.98177e+00
309.000      6.11495e+00
310.000      6.26997e+00
311.000      6.47620e+00
312.000      6.75676e+00
313.000      7.12155e+00
314.000      7.56485e+00
315.000      8.06808e+00
316.000      8.60603e+00
317.000      9.15379e+00
318.000      9.69196e+00
319.000      1.02087e+01
320.000      1.06997e+01
321.000      1.11664e+01
322.000      1.16163e+01
323.000      1.20630e+01
324.000      1.25271e+01
325.000      1.30360e+01
326.000      1.36199e+01
327.000      1.43053e+01
328.000      1.51067e+01
329.000      1.60200e+01
330.000      1.70201e+01
331.000      1.80651e+01
332.000      1.91047e+01
333.000      2.00923e+01
334.000      2.09946e+01
335.000      2.17964e+01
336.000      2.25005e+01
337.000      2.31207e+01
338.000      2.36729e+01
339.000      2.41665e+01
340.000      2.45982e+01
341.000      2.49505e+01
342.000      2.51932e+01
343.000      2.52892e+01
344.000      2.52003e+01
345.000      2.48944e+01
346.000      2.43508e+01
347.000      2.35644e+01
348.000      2.25472e+01
349.000      2.13279e+01
350.000      1.99496e+01
351.000      1.84656e+01
352.000      1.69348e+01
353.000      1.54169e+01
354.000      1.39682e+01
355.000      1.26380e+01
356.000      1.14656e+01
357.000      1.04774e+01
358.000      9.68500e+00
359.000      9.08334e+00
360.000      8.65079e+00
361.000      8.35097e+00
362.000      8.13715e+00
363.000      7.95887e+00
364.000      7.76967e+00
365.000      7.53426e+00
366.000      7.23372e+00
367.000      6.86710e+00
368.000      6.44940e+00
369.000      6.00639e+00
370.000      5.56776e+00
371.000      5.16066e+00
372.000      4.80544e+00
373.000      4.51494e+00
374.000      4.29702e+00
375.000      4.15928e+00
376.000      4.11375e+00
377.000      4.17921e+00
378.000      4.37998e+00
379.000      4.74082e+00
380.000      5.27931e+00
381.000      5.99771e+00
382.000      6.87645e+00
383.000      7.87104e+00
384.000      8.91342e+00
385.000      9.91782e+00
386.000      1.07905e+01
387.000      1.14416e+01
388.000      1.17981e+01
389.000      1.18138e+01
390.000      1.14771e+01
391.000      1.08126e+01
392.000      9.87780e+00
393.000      8.75477e+00
394.000      7.53890e+00
395.000      6.32586e+00
396.000      5.19960e+00
397.000      4.22303e+00
398.000      3.43257e+00
399.000      2.83745e+00
400.000      2.42311e+00
401.000      2.15781e+00
402.000      2.00062e+00
403.000      1.90900e+00
404.000      1.84480e+00
405.000      1.77796e+00
406.000      1.68826e+00
407.000      1.56541e+00
408.000      1.40826e+00
409.000      1.22320e+00
410.000      1.02188e+00
411.000      8.18518e-01
412.000      6.26965e-01
413.000      4.58244e-01
414.000      3.19011e-01
415.000      2.11218e-01
416.000      1.32850e-01
417.000      7.93028e-02
418.000      4.48944e-02
419.000      2.40893e-02
420.000      1.22459e-02
421.000      5.89583e-03
422.000      2.68766e-03
423.000      1.15982e-03
424.000      4.73728e-04
425.000      1.83122e-04
426.000      6.69864e-05
427.000      2.31867e-05
428.000      7.59408e-06
429.000      2.35331e-06
430.000      6.89984e-07
431.000      1.91402e-07
432.000      5.02332e-08
433.000      1.24730e-08
434.000      2.93008e-09
435.000      6.51202e-10
436.000      1.36923e-10
437.000      2.72371e-11
438.000      5.12584e-12
439.000      9.12623e-13
440.000      1.53722e-13
441.000      2.44964e-14
442.000      3.69306e-15
443.000      5.26731e-16
444.000      7.10738e-17
445.000      9.07295e-18
446.000      1.09573e-18
447.000      1.25193e-19
448.000      1.35323e-20
449.000      1.38383e-21
450.000      1.33879e-22
451.000      1.22534e-23
452.000      1.06102e-24
453.000      8.69167e-26
454.000      6.73600e-27
455.000      4.93877e-28
456.000      3.42573e-29
457.000      2.24804e-30
458.000      1.39564e-31
459.000      8.19712e-33
460.000      4.55477e-34
461.000      2.39435e-35
462.000      1.19077e-36
463.000      5.60255e-38
464.000      2.49380e-39
465.000      1.05016e-40
466.000      4.18373e-42
467.000      1.57686e-43
468.000      5.62260e-45
469.000      1.89671e-46
470.000      6.05315e-48
471.000      1.82759e-49
472.000      5.22030e-51
473.000      1.41068e-52
474.000      3.60645e-54
475.000      8.72266e-56
476.000      1.99588e-57
477.000      4.32055e-59
478.000      8.84832e-61
479.000      1.71435e-62
480.000      3.14236e-64
481.000      5.44918e-66
482.000      8.93970e-68
483.000      1.38750e-69
484.000      2.03732e-71
485.000      2.83012e-73
486.000      3.71934e-75
487.000      4.62430e-77
488.000      5.43931e-79
489.000      6.05284e-81
490.000      6.37223e-83
491.000      6.34661e-85
492.000      5.98012e-87
493.000      5.33084e-89
494.000      4.49571e-91
495.000      3.58690e-93
496.000      2.70743e-95
497.000      1.93336e-97
498.000      1.30613e-99
499.000     8.34792e-102
500.000     5.04762e-104
