# Gaussian folded, width=10 cm^-1
# [cm^-1] arbitrary
0.000      3.00000e+00
1.000      2.91796e+00
2.000      2.68508e+00
3.000      2.33749e+00
4.000      1.92514e+00
5.000      1.50000e+00
6.000      1.10570e+00
7.000      7.71085e-01
8.000      5.08727e-01
9.000      3.17530e-01
10.000      1.87500e-01
11.000      1.04746e-01
12.000      5.53605e-02
13.000      2.76846e-02
14.000      1.31103e-02
15.000      5.91328e-03
16.000      2.64187e-03
17.000      1.44999e-03
18.000      1.60043e-03
19.000      3.24362e-03
20.000      7.52390e-03
21.000      1.70531e-02
22.000      3.67745e-02
23.000      7.51626e-02
24.000      1.45527e-01
25.000      2.66897e-01
26.000      4.63672e-01
27.000      7.63045e-01
28.000      1.18951e+00
29.000      1.75660e+00
30.000      2.45736e+00
31.000      3.25658e+00
32.000      4.08841e+00
33.000      4.86240e+00
34.000      5.47839e+00
35.000      5.84740e+00
36.000      5.91262e+00
37.000      5.66377e+00
38.000      5.13972e+00
39.000      4.41860e+00
40.000      3.59880e+00
41.000      2.77729e+00
42.000      2.03186e+00
43.000      1.41171e+00
44.000      9.37125e-01
45.000      6.06355e-01
46.000      4.05934e-01
47.000      3.20929e-01
48.000      3.42516e-01
49.000      4.71511e-01
50.000      7.17477e-01
51.000      1.09364e+00
52.000      1.60859e+00
53.000      2.25649e+00
54.000      3.00855e+00
55.000      3.80897e+00
56.000      4.57806e+00
57.000      5.22345e+00
58.000      5.65765e+00
59.000      5.81725e+00
60.000      5.67810e+00
61.000      5.26134e+00
62.000      4.62840e+00
63.000      3.86657e+00
64.000      3.07023e+00
65.000      2.32342e+00
66.000      1.68859e+00
67.000      1.20338e+00
68.000      8.84401e-01
69.000      7.34820e-01
70.000      7.52004e-01
71.000      9.32128e-01
72.000      1.27034e+00
73.000      1.75684e+00
74.000      2.37091e+00
75.000      3.07568e+00
76.000      3.81679e+00
77.000      4.52687e+00
78.000      5.13614e+00
79.000      5.58732e+00
80.000      5.85100e+00
81.000      5.93692e+00
82.000      5.89688e+00
83.000      5.81723e+00
84.000      5.80164e+00
85.000      5.94795e+00
86.000      6.32524e+00
87.000      6.95743e+00
88.000      7.81846e+00
89.000      8.84033e+00
90.000      9.93142e+00
91.000      1.09993e+01
92.000      1.19704e+01
93.000      1.28010e+01
94.000      1.34770e+01
95.000      1.40033e+01
96.000      1.43899e+01
97.000      1.46388e+01
98.000      1.47379e+01
99.000      1.46641e+01
100.000      1.43926e+01
101.000      1.39101e+01
102.000      1.32249e+01
103.000      1.23720e+01
104.000      1.14100e+01
105.000      1.04119e+01
106.000      9.45337e+00
107.000      8.60252e+00
108.000      7.91345e+00
109.000      7.42577e+00
110.000      7.16797e+00
111.000      7.16183e+00
112.000      7.42454e+00
113.000      7.96665e+00
114.000      8.78620e+00
115.000      9.86151e+00
116.000      1.11462e+01
117.000      1.25690e+01
118.000      1.40398e+01
119.000      1.54604e+01
120.000      1.67362e+01
121.000      1.77876e+01
122.000      1.85570e+01
123.000      1.90124e+01
124.000      1.91469e+01
125.000      1.89762e+01
126.000      1.85351e+01
127.000      1.78730e+01
128.000      1.70500e+01
129.000      1.61321e+01
130.000      1.51869e+01
131.000      1.42780e+01
132.000      1.34609e+01
133.000      1.27778e+01
134.000      1.22535e+01
135.000      1.18929e+01
136.000      1.16796e+01
137.000      1.15785e+01
138.000      1.15405e+01
139.000      1.15111e+01
140.000      1.14407e+01
141.000      1.12942e+01
142.000      1.10574e+01
143.000      1.07397e+01
144.000      1.03693e+01
145.000      9.98429e+00
146.000      9.62181e+00
147.000      9.30745e+00
148.000      9.04976e+00
149.000      8.84022e+00
150.000      8.65855e+00
151.000      8.48091e+00
152.000      8.28797e+00
153.000      8.07003e+00
154.000      7.82808e+00
155.000      7.57105e+00
156.000      7.31091e+00
157.000      7.05768e+00
158.000      6.81581e+00
159.000      6.58288e+00
160.000      6.35037e+00
161.000      6.10601e+00
162.000      5.83696e+00
163.000      5.53298e+00
164.000      5.18936e+00
165.000      4.80894e+00
166.000      4.40313e+00
167.000      3.99156e+00
168.000      3.60055e+00
169.000      3.26051e+00
170.000      3.00252e+00
171.000      2.85428e+00
172.000      2.83573e+00
173.000      2.95489e+00
174.000      3.20488e+00
175.000      3.56341e+00
176.000      3.99561e+00
177.000      4.46028e+00
178.000      4.91834e+00
179.000      5.34126e+00
180.000      5.71696e+00
181.000      6.05132e+00
182.000      6.36487e+00
183.000      6.68575e+00
184.000      7.04117e+00
185.000      7.45009e+00
186.000      7.91887e+00
187.000      8.44092e+00
188.000      8.99953e+00
189.000      9.57258e+00
190.000      1.01371e+01
191.000      1.06728e+01
192.000      1.11636e+01
193.000      1.15979e+01
194.000      1.19675e+01
195.000      1.22673e+01
196.000      1.24945e+01
197.000      1.26488e+01
198.000      1.27336e+01
199.000      1.27573e+01
200.000      1.27346e+01
201.000      1.26857e+01
202.000      1.26328e+01
203.000      1.25950e+01
204.000      1.25821e+01
205.000      1.25904e+01
206.000      1.26031e+01
207.000      1.25959e+01
208.000      1.25463e+01
209.000      1.24436e+01
210.000      1.22955e+01
211.000      1.21281e+01
212.000      1.19801e+01
213.000      1.18925e+01
214.000      1.18974e+01
215.000      1.20099e+01
216.000      1.22254e+01
217.000      1.25216e+01
218.000      1.28645e+01
219.000      1.32159e+01
220.000      1.35406e+01
221.000      1.38122e+01
222.000      1.40159e+01
223.000      1.41504e+01
224.000      1.42260e+01
225.000      1.42613e+01
226.000      1.42788e+01
227.000      1.42988e+01
228.000      1.43350e+01
229.000      1.43919e+01
230.000      1.44654e+01
231.000      1.45457e+01
232.000      1.46209e+01
233.000      1.46806e+01
234.000      1.47162e+01
235.000      1.47195e+01
236.000      1.46804e+01
237.000      1.45853e+01
238.000      1.44185e+01
239.000      1.41675e+01
240.000      1.38301e+01
241.000      1.34205e+01
242.000      1.29719e+01
243.000      1.25322e+01
244.000      1.21546e+01
245.000      1.18846e+01
246.000      1.17491e+01
247.000      1.17488e+01
248.000      1.18586e+01
249.000      1.20327e+01
250.000      1.22146e+01
251.000      1.23462e+01
252.000      1.23769e+01
253.000      1.22688e+01
254.000      1.19993e+01
255.000      1.15623e+01
256.000      1.09686e+01
257.000      1.02449e+01
258.000      9.43280e+00
259.000      8.58552e+00
260.000      7.76236e+00
261.000      7.02099e+00
262.000      6.40836e+00
263.000      5.95197e+00
264.000      5.65357e+00
265.000      5.48747e+00
266.000      5.40449e+00
267.000      5.34159e+00
268.000      5.23547e+00
269.000      5.03706e+00
270.000      4.72320e+00
271.000      4.30210e+00
272.000      3.81103e+00
273.000      3.30663e+00
274.000      2.85075e+00
275.000      2.49561e+00
276.000      2.27228e+00
277.000      2.18512e+00
278.000      2.21314e+00
279.000      2.31721e+00
280.000      2.45078e+00
281.000      2.57088e+00
282.000      2.64684e+00
283.000      2.66476e+00
284.000      2.62759e+00
285.000      2.55157e+00
286.000      2.46106e+00
287.000      2.38324e+00
288.000      2.34407e+00
289.000      2.36583e+00
290.000      2.46598e+00
291.000      2.65669e+00
292.000      2.94424e+00
293.000      3.32787e+00
294.000      3.79785e+00
295.000      4.33345e+00
296.000      4.90198e+00
297.000      5.46017e+00
298.000      5.95886e+00
299.000      6.35077e+00
300.000      6.59978e+00
301.000      6.68921e+00
302.000      6.62632e+00
303.000      6.44161e+00
304.000      6.18258e+00
305.000      5.90397e+00
306.000      5.65706e+00
307.000      5.48090e+00
308.000      5.39734e+00
309.000      5.41046e+00
310.000      5.50972e+00
311.000      5.67550e+00
312.000      5.88547e+00
313.000      6.12069e+00
314.000      6.37026e+00
315.000      6.63389e+00
316.000      6.92190e+00
317.000      7.25258e+00
318.000      7.64758e+00
319.000      8.12638e+00
320.000      8.70167e+00
321.000      9.37690e+00
322.000      1.01467e+01
323.000      1.09997e+01
324.000      1.19223e+01
325.000      1.29018e+01
326.000      1.39271e+01
327.000      1.49878e+01
328.000      1.60722e+01
329.000      1.71647e+01
330.000      1.82457e+01
331.000      1.92923e+01
332.000      2.02818e+01
333.000      2.11943e+01
334.000      2.20150e+01
335.000      2.27358e+01
336.000      2.33544e+01
337.000      2.38728e+01
338.000      2.42956e+01
339.000      2.46272e+01
340.000      2.48701e+01
341.000      2.50221e+01
342.000      2.50758e+01
343.000      2.50175e+01
344.000      2.48281e+01
345.000      2.44860e+01
346.000      2.39703e+01
347.000      2.32660e+01
348.000      2.23684e+01
349.000      2.12873e+01
350.000      2.00490e+01
351.000      1.86961e+01
352.000      1.72834e+01
353.000      1.58717e+01
354.000      1.45196e+01
355.000      1.32766e+01
356.000      1.21770e+01
357.000      1.12374e+01
358.000      1.04565e+01
359.000      9.81795e+00
360.000      9.29473e+00
361.000      8.85487e+00
362.000      8.46794e+00
363.000      8.11079e+00
364.000      7.77130e+00
365.000      7.44862e+00
366.000      7.14958e+00
367.000      6.88223e+00
368.000      6.64863e+00
369.000      6.43995e+00
370.000      6.23587e+00
371.000      6.00938e+00
372.000      5.73555e+00
373.000      5.40174e+00
374.000      5.01580e+00
375.000      4.60945e+00
376.000      4.23525e+00
377.000      3.95777e+00
378.000      3.84124e+00
379.000      3.93665e+00
380.000      4.27169e+00
381.000      4.84530e+00
382.000      5.62747e+00
383.000      6.56317e+00
384.000      7.57897e+00
385.000      8.59082e+00
386.000      9.51217e+00
387.000      1.02624e+01
388.000      1.07754e+01
389.000      1.10070e+01
390.000      1.09414e+01
391.000      1.05924e+01
392.000      1.00006e+01
393.000      9.22544e+00
394.000      8.33520e+00
395.000      7.39593e+00
396.000      6.46374e+00
397.000      5.58081e+00
398.000      4.77519e+00
399.000      4.06291e+00
400.000      3.45067e+00
401.000      2.93771e+00
402.000      2.51677e+00
403.000      2.17468e+00
404.000      1.89375e+00
405.000      1.65439e+00
406.000      1.43862e+00
407.000      1.23342e+00
408.000      1.03279e+00
409.000      8.37600e-01
410.000      6.53573e-01
411.000      4.88212e-01
412.000      3.47863e-01
413.000      2.35820e-01
414.000      1.51830e-01
415.000      9.27277e-02
416.000      5.36747e-02
417.000      2.94301e-02
418.000      1.52794e-02
419.000      7.50919e-03
420.000      3.49282e-03
421.000      1.53744e-03
422.000      6.40359e-04
423.000      2.52363e-04
424.000      9.40990e-05
425.000      3.31964e-05
426.000      1.10798e-05
427.000      3.49871e-06
428.000      1.04522e-06
429.000      2.95417e-07
430.000      7.89920e-08
431.000      1.99826e-08
432.000      4.78234e-09
433.000      1.08280e-09
434.000      2.31939e-10
435.000      4.70023e-11
436.000      9.01119e-12
437.000      1.63442e-12
438.000      2.80454e-13
439.000      4.55280e-14
440.000      6.99218e-15
441.000      1.01593e-15
442.000      1.39648e-16
443.000      1.81602e-17
444.000      2.23422e-18
445.000      2.60045e-19
446.000      2.86344e-20
447.000      2.98295e-21
448.000      2.93983e-22
449.000      2.74104e-23
450.000      2.41783e-24
451.000      2.01769e-25
452.000      1.59294e-26
453.000      1.18977e-27
454.000      8.40705e-29
455.000      5.62008e-30
456.000      3.55434e-31
457.000      2.12663e-32
458.000      1.20377e-33
459.000      6.44633e-35
460.000      3.26587e-36
461.000      1.56532e-37
462.000      7.09782e-39
463.000      3.04484e-40
464.000      1.23572e-41
465.000      4.74456e-43
466.000      1.72341e-44
467.000      5.92240e-46
468.000      1.92542e-47
469.000      5.92203e-49
470.000      1.72319e-50
471.000      4.74366e-52
472.000      1.23541e-53
473.000      3.04387e-55
474.000      7.09511e-57
475.000      1.56462e-58
476.000      3.26421e-60
477.000      6.44264e-62
478.000      1.20300e-63
479.000      2.12514e-65
480.000      3.55162e-67
481.000      5.61543e-69
482.000      8.39956e-71
483.000      1.18863e-72
484.000      1.59132e-74
485.000      2.01550e-76
486.000      2.41506e-78
487.000      2.73772e-80
488.000      2.93609e-82
489.000      2.97897e-84
490.000      2.85944e-86
491.000      2.59665e-88
492.000      2.23081e-90
493.000      1.81313e-92
494.000      1.39417e-94
495.000      1.01419e-96
496.000      6.97972e-99
497.000     4.54439e-101
498.000     2.79918e-103
499.000     1.63119e-105
500.000     8.99279e-108
