# Gaussian folded, width=10 cm^-1
# [cm^-1] arbitrary
0.000      3.00000e+00
1.000      2.91796e+00
2.000      2.68508e+00
3.000      2.33749e+00
4.000      1.92514e+00
5.000      1.50000e+00
6.000      1.10570e+00
7.000      7.71085e-01
8.000      5.08727e-01
9.000      3.17530e-01
10.000      1.87501e-01
11.000      1.04749e-01
12.000      5.53714e-02
13.000      2.77189e-02
14.000      1.32125e-02
15.000      6.20124e-03
16.000      3.40887e-03
17.000      3.38037e-03
18.000      6.18982e-03
19.000      1.35471e-02
20.000      2.93587e-02
21.000      6.07078e-02
22.000      1.19064e-01
23.000      2.21296e-01
24.000      3.89748e-01
25.000      6.50484e-01
26.000      1.02887e+00
27.000      1.54236e+00
28.000      2.19152e+00
29.000      2.95166e+00
30.000      3.76859e+00
31.000      4.56152e+00
32.000      5.23461e+00
33.000      5.69544e+00
34.000      5.87571e+00
35.000      5.74784e+00
36.000      5.33192e+00
37.000      4.69063e+00
38.000      3.91406e+00
39.000      3.09948e+00
40.000      2.33274e+00
41.000      1.67619e+00
42.000      1.16544e+00
43.000      8.13714e-01
44.000      6.20741e-01
45.000      5.82052e-01
46.000      6.95385e-01
47.000      9.62187e-01
48.000      1.38388e+00
49.000      1.95418e+00
50.000      2.65022e+00
51.000      3.42587e+00
52.000      4.21087e+00
53.000      4.91760e+00
54.000      5.45529e+00
55.000      5.74831e+00
56.000      5.75320e+00
57.000      5.46915e+00
58.000      4.93824e+00
59.000      4.23553e+00
60.000      3.45219e+00
61.000      2.67729e+00
62.000      1.98355e+00
63.000      1.42039e+00
64.000      1.01466e+00
65.000      7.77020e-01
66.000      7.10178e-01
67.000      8.15321e-01
68.000      1.09412e+00
69.000      1.54543e+00
70.000      2.15796e+00
71.000      2.90200e+00
72.000      3.72433e+00
73.000      4.55030e+00
74.000      5.29476e+00
75.000      5.88068e+00
76.000      6.26036e+00
77.000      6.43240e+00
78.000      6.44778e+00
79.000      6.40187e+00
80.000      6.41375e+00
81.000      6.59872e+00
82.000      7.04225e+00
83.000      7.78255e+00
84.000      8.80560e+00
85.000      1.00522e+01
86.000      1.14331e+01
87.000      1.28459e+01
88.000      1.41899e+01
89.000      1.53745e+01
90.000      1.63234e+01
91.000      1.69755e+01
92.000      1.72863e+01
93.000      1.72307e+01
94.000      1.68096e+01
95.000      1.60544e+01
96.000      1.50292e+01
97.000      1.38265e+01
98.000      1.25556e+01
99.000      1.13265e+01
100.000      1.02334e+01
101.000      9.34305e+00
102.000      8.69154e+00
103.000      8.28901e+00
104.000      8.13056e+00
105.000      8.20774e+00
106.000      8.51622e+00
107.000      9.05693e+00
108.000      9.83093e+00
109.000      1.08305e+01
110.000      1.20305e+01
111.000      1.33828e+01
112.000      1.48163e+01
113.000      1.62429e+01
114.000      1.75673e+01
115.000      1.86990e+01
116.000      1.95645e+01
117.000      2.01160e+01
118.000      2.03377e+01
119.000      2.02450e+01
120.000      1.98811e+01
121.000      1.93087e+01
122.000      1.86004e+01
123.000      1.78300e+01
124.000      1.70654e+01
125.000      1.63639e+01
126.000      1.57699e+01
127.000      1.53114e+01
128.000      1.49966e+01
129.000      1.48102e+01
130.000      1.47116e+01
131.000      1.46391e+01
132.000      1.45198e+01
133.000      1.42850e+01
134.000      1.38867e+01
135.000      1.33100e+01
136.000      1.25755e+01
137.000      1.17330e+01
138.000      1.08466e+01
139.000      9.97826e+00
140.000      9.17334e+00
141.000      8.45460e+00
142.000      7.82327e+00
143.000      7.26637e+00
144.000      6.76615e+00
145.000      6.30812e+00
146.000      5.88506e+00
147.000      5.49654e+00
148.000      5.14525e+00
149.000      4.83219e+00
150.000      4.55318e+00
151.000      4.29797e+00
152.000      4.05227e+00
153.000      3.80153e+00
154.000      3.53484e+00
155.000      3.24734e+00
156.000      2.94073e+00
157.000      2.62203e+00
158.000      2.30200e+00
159.000      1.99406e+00
160.000      1.71434e+00
161.000      1.48220e+00
162.000      1.32050e+00
163.000      1.25459e+00
164.000      1.30960e+00
165.000      1.50644e+00
166.000      1.85738e+00
167.000      2.36238e+00
168.000      3.00732e+00
169.000      3.76485e+00
170.000      4.59796e+00
171.000      5.46531e+00
172.000      6.32724e+00
173.000      7.15074e+00
174.000      7.91254e+00
175.000      8.59987e+00
176.000      9.20943e+00
177.000      9.74566e+00
178.000      1.02190e+01
179.000      1.06443e+01
180.000      1.10399e+01
181.000      1.14259e+01
182.000      1.18214e+01
183.000      1.22414e+01
184.000      1.26932e+01
185.000      1.31742e+01
186.000      1.36718e+01
187.000      1.41652e+01
188.000      1.46302e+01
189.000      1.50452e+01
190.000      1.53952e+01
191.000      1.56756e+01
192.000      1.58920e+01
193.000      1.60590e+01
194.000      1.61969e+01
195.000      1.63286e+01
196.000      1.64774e+01
197.000      1.66652e+01
198.000      1.69115e+01
199.000      1.72323e+01
200.000      1.76372e+01
201.000      1.81267e+01
202.000      1.86877e+01
203.000      1.92908e+01
204.000      1.98888e+01
205.000      2.04190e+01
206.000      2.08090e+01
207.000      2.09868e+01
208.000      2.08929e+01
209.000      2.04928e+01
210.000      1.97865e+01
211.000      1.88129e+01
212.000      1.76469e+01
213.000      1.63902e+01
214.000      1.51578e+01
215.000      1.40622e+01
216.000      1.31989e+01
217.000      1.26344e+01
218.000      1.23984e+01
219.000      1.24809e+01
220.000      1.28354e+01
221.000      1.33878e+01
222.000      1.40509e+01
223.000      1.47421e+01
224.000      1.53990e+01
225.000      1.59907e+01
226.000      1.65193e+01
227.000      1.70134e+01
228.000      1.75141e+01
229.000      1.80597e+01
230.000      1.86715e+01
231.000      1.93456e+01
232.000      2.00520e+01
233.000      2.07390e+01
234.000      2.13432e+01
235.000      2.18015e+01
236.000      2.20621e+01
237.000      2.20949e+01
238.000      2.18968e+01
239.000      2.14931e+01
240.000      2.09348e+01
241.000      2.02912e+01
242.000      1.96406e+01
243.000      1.90599e+01
244.000      1.86144e+01
245.000      1.83496e+01
246.000      1.82843e+01
247.000      1.84069e+01
248.000      1.86733e+01
249.000      1.90091e+01
250.000      1.93158e+01
251.000      1.94823e+01
252.000      1.94014e+01
253.000      1.89883e+01
254.000      1.81987e+01
255.000      1.70402e+01
256.000      1.55744e+01
257.000      1.39080e+01
258.000      1.21734e+01
259.000      1.05046e+01
260.000      9.01380e+00
261.000      7.77424e+00
262.000      6.81270e+00
263.000      6.11291e+00
264.000      5.62738e+00
265.000      5.29417e+00
266.000      5.05408e+00
267.000      4.86450e+00
268.000      4.70682e+00
269.000      4.58667e+00
270.000      4.52782e+00
271.000      4.56221e+00
272.000      4.71939e+00
273.000      5.01794e+00
274.000      5.46033e+00
275.000      6.03089e+00
276.000      6.69622e+00
277.000      7.40687e+00
278.000      8.10057e+00
279.000      8.70743e+00
280.000      9.15798e+00
281.000      9.39365e+00
282.000      9.37789e+00
283.000      9.10474e+00
284.000      8.60167e+00
285.000      7.92511e+00
286.000      7.14935e+00
287.000      6.35228e+00
288.000      5.60221e+00
289.000      4.94948e+00
290.000      4.42415e+00
291.000      4.03852e+00
292.000      3.79171e+00
293.000      3.67374e+00
294.000      3.66761e+00
295.000      3.74979e+00
296.000      3.89038e+00
297.000      4.05405e+00
298.000      4.20265e+00
299.000      4.29917e+00
300.000      4.31258e+00
301.000      4.22282e+00
302.000      4.02490e+00
303.000      3.73117e+00
304.000      3.37065e+00
305.000      2.98496e+00
306.000      2.62125e+00
307.000      2.32368e+00
308.000      2.12557e+00
309.000      2.04416e+00
310.000      2.07925e+00
311.000      2.21535e+00
312.000      2.42640e+00
313.000      2.68130e+00
314.000      2.94932e+00
315.000      3.20446e+00
316.000      3.42897e+00
317.000      3.61586e+00
318.000      3.77026e+00
319.000      3.90903e+00
320.000      4.05820e+00
321.000      4.24818e+00
322.000      4.50794e+00
323.000      4.85960e+00
324.000      5.31534e+00
325.000      5.87754e+00
326.000      6.54163e+00
327.000      7.30028e+00
328.000      8.14664e+00
329.000      9.07524e+00
330.000      1.00802e+01
331.000      1.11519e+01
332.000      1.22730e+01
333.000      1.34174e+01
334.000      1.45488e+01
335.000      1.56229e+01
336.000      1.65880e+01
337.000      1.73875e+01
338.000      1.79628e+01
339.000      1.82586e+01
340.000      1.82325e+01
341.000      1.78649e+01
342.000      1.71674e+01
343.000      1.61860e+01
344.000      1.49950e+01
345.000      1.36837e+01
346.000      1.23400e+01
347.000      1.10351e+01
348.000      9.81540e+00
349.000      8.70307e+00
350.000      7.70357e+00
351.000      6.81646e+00
352.000      6.04442e+00
353.000      5.39749e+00
354.000      4.89125e+00
355.000      4.54061e+00
356.000      4.35209e+00
357.000      4.31776e+00
358.000      4.41316e+00
359.000      4.59977e+00
360.000      4.83143e+00
361.000      5.06274e+00
362.000      5.25720e+00
363.000      5.39281e+00
364.000      5.46393e+00
365.000      5.47888e+00
366.000      5.45442e+00
367.000      5.40888e+00
368.000      5.35615e+00
369.000      5.30234e+00
370.000      5.24542e+00
371.000      5.17769e+00
372.000      5.08930e+00
373.000      4.97172e+00
374.000      4.81997e+00
375.000      4.63363e+00
376.000      4.41724e+00
377.000      4.18062e+00
378.000      3.93944e+00
379.000      3.71526e+00
380.000      3.53400e+00
381.000      3.42170e+00
382.000      3.39780e+00
383.000      3.46734e+00
384.000      3.61504e+00
385.000      3.80395e+00
386.000      3.98067e+00
387.000      4.08636e+00
388.000      4.07078e+00
389.000      3.90485e+00
390.000      3.58780e+00
391.000      3.14661e+00
392.000      2.62823e+00
393.000      2.08757e+00
394.000      1.57522e+00
395.000      1.12840e+00
396.000      7.66982e-01
397.000      4.94479e-01
398.000      3.02288e-01
399.000      1.75186e-01
400.000      9.62269e-02
401.000      5.00883e-02
402.000      2.47032e-02
403.000      1.15423e-02
404.000      5.10853e-03
405.000      2.14153e-03
406.000      8.50225e-04
407.000      3.19661e-04
408.000      1.13804e-04
409.000      3.83627e-05
410.000      1.22439e-05
411.000      3.69965e-06
412.000      1.05832e-06
413.000      2.86593e-07
414.000      7.34668e-08
415.000      1.78269e-08
416.000      4.09458e-09
417.000      8.90176e-10
418.000      1.83174e-10
419.000      3.56750e-11
420.000      6.57606e-12
421.000      1.14726e-12
422.000      1.89426e-13
423.000      2.96002e-14
424.000      4.37743e-15
425.000      6.12643e-16
426.000      8.11433e-17
427.000      1.01707e-17
428.000      1.20640e-18
429.000      1.35417e-19
430.000      1.43845e-20
431.000      1.44592e-21
432.000      1.37538e-22
433.000      1.23802e-23
434.000      1.05450e-24
435.000      8.49936e-26
436.000      6.48242e-27
437.000      4.67840e-28
438.000      3.19495e-29
439.000      2.06459e-30
440.000      1.26242e-31
441.000      7.30421e-33
442.000      3.99887e-34
443.000      2.07154e-35
444.000      1.01541e-36
445.000      4.70952e-38
446.000      2.06680e-39
447.000      8.58228e-41
448.000      3.37202e-42
449.000      1.25359e-43
450.000      4.40963e-45
451.000      1.46765e-46
452.000      4.62188e-48
453.000      1.37717e-49
454.000      3.88265e-51
455.000      1.03571e-52
456.000      2.61407e-54
457.000      6.24255e-56
458.000      1.41050e-57
459.000      3.01542e-59
460.000      6.09938e-61
461.000      1.16731e-62
462.000      2.11371e-64
463.000      3.62131e-66
464.000      5.87007e-68
465.000      9.00281e-70
466.000      1.30638e-71
467.000      1.79356e-73
468.000      2.32979e-75
469.000      2.86332e-77
470.000      3.32948e-79
471.000      3.66297e-81
472.000      3.81278e-83
473.000      3.75491e-85
474.000      3.49870e-87
475.000      3.08434e-89
476.000      2.57256e-91
477.000      2.03009e-93
478.000      1.51569e-95
479.000      1.07066e-97
480.000     7.15546e-100
481.000     4.52447e-102
482.000     2.70671e-104
483.000     1.53199e-106
484.000     8.20381e-109
485.000     4.15639e-111
486.000     1.99231e-113
487.000     9.03524e-116
488.000     3.87669e-118
489.000     1.57370e-120
490.000     6.04399e-123
491.000     2.19616e-125
492.000     7.54989e-128
493.000     2.45559e-130
494.000     7.55628e-133
495.000     2.19987e-135
496.000     6.05930e-138
497.000     1.57901e-140
498.000     3.89296e-143
499.000     9.08055e-146
500.000     2.00391e-148
