# Gaussian folded, width=10 cm^-1
# [cm^-1] arbitrary
0.000      3.00000e+00
1.000      2.91796e+00
2.000      2.68508e+00
3.000      2.33749e+00
4.000      1.92514e+00
5.000      1.50000e+00
6.000      1.10570e+00
7.000      7.71085e-01
8.000      5.08727e-01
9.000      3.17530e-01
10.000      1.87502e-01
11.000      1.04752e-01
12.000      5.53799e-02
13.000      2.77454e-02
14.000      1.32900e-02
15.000      6.41518e-03
16.000      3.96668e-03
17.000      4.75361e-03
18.000      9.38070e-03
19.000      2.05424e-02
20.000      4.38199e-02
21.000      8.88812e-02
22.000      1.70750e-01
23.000      3.10498e-01
24.000      5.34391e-01
25.000      8.70482e-01
26.000      1.34203e+00
27.000      1.95823e+00
28.000      2.70441e+00
29.000      3.53497e+00
30.000      4.37328e+00
31.000      5.12082e+00
32.000      5.67522e+00
33.000      5.95306e+00
34.000      5.91037e+00
35.000      5.55409e+00
36.000      4.94030e+00
37.000      4.15996e+00
38.000      3.31730e+00
39.000      2.50817e+00
40.000      1.80474e+00
41.000      1.24994e+00
42.000      8.61076e-01
43.000      6.39189e-01
44.000      5.79730e-01
45.000      6.80344e-01
46.000      9.43246e-01
47.000      1.37148e+00
48.000      1.96031e+00
49.000      2.68680e+00
50.000      3.50169e+00
51.000      4.32795e+00
52.000      5.06849e+00
53.000      5.62281e+00
54.000      5.90848e+00
55.000      5.88084e+00
56.000      5.54441e+00
57.000      4.95168e+00
58.000      4.19011e+00
59.000      3.36160e+00
60.000      2.56170e+00
61.000      1.86462e+00
62.000      1.31729e+00
63.000      9.42278e-01
64.000      7.46167e-01
65.000      7.28879e-01
66.000      8.89937e-01
67.000      1.22924e+00
68.000      1.74219e+00
69.000      2.41140e+00
70.000      3.19868e+00
71.000      4.04209e+00
72.000      4.86136e+00
73.000      5.57251e+00
74.000      6.10876e+00
75.000      6.44127e+00
76.000      6.59217e+00
77.000      6.63392e+00
78.000      6.67392e+00
79.000      6.82850e+00
80.000      7.19465e+00
81.000      7.82872e+00
82.000      8.73814e+00
83.000      9.88675e+00
84.000      1.12090e+01
85.000      1.26252e+01
86.000      1.40520e+01
87.000      1.54040e+01
88.000      1.65922e+01
89.000      1.75228e+01
90.000      1.81038e+01
91.000      1.82601e+01
92.000      1.79539e+01
93.000      1.72016e+01
94.000      1.60794e+01
95.000      1.47134e+01
96.000      1.32555e+01
97.000      1.18534e+01
98.000      1.06256e+01
99.000      9.64788e+00
100.000      8.95567e+00
101.000      8.55750e+00
102.000      8.45177e+00
103.000      8.63900e+00
104.000      9.12496e+00
105.000      9.91529e+00
106.000      1.10058e+01
107.000      1.23734e+01
108.000      1.39714e+01
109.000      1.57284e+01
110.000      1.75506e+01
111.000      1.93249e+01
112.000      2.09249e+01
113.000      2.22203e+01
114.000      2.30946e+01
115.000      2.34660e+01
116.000      2.33107e+01
117.000      2.26773e+01
118.000      2.16871e+01
119.000      2.05147e+01
120.000      1.93544e+01
121.000      1.83786e+01
122.000      1.77019e+01
123.000      1.73595e+01
124.000      1.73059e+01
125.000      1.74336e+01
126.000      1.76036e+01
127.000      1.76798e+01
128.000      1.75565e+01
129.000      1.71752e+01
130.000      1.65255e+01
131.000      1.56365e+01
132.000      1.45620e+01
133.000      1.33662e+01
134.000      1.21128e+01
135.000      1.08595e+01
136.000      9.65652e+00
137.000      8.54490e+00
138.000      7.55520e+00
139.000      6.70459e+00
140.000      5.99429e+00
141.000      5.40894e+00
142.000      4.91920e+00
143.000      4.48770e+00
144.000      4.07700e+00
145.000      3.65762e+00
146.000      3.21381e+00
147.000      2.74570e+00
148.000      2.26724e+00
149.000      1.80092e+00
150.000      1.37103e+00
151.000      9.97535e-01
152.000      6.92141e-01
153.000      4.57227e-01
154.000      2.87229e-01
155.000      1.71515e-01
156.000      9.75467e-02
157.000      5.34880e-02
158.000      2.98735e-02
159.000      2.04158e-02
160.000      2.22710e-02
161.000      3.61164e-02
162.000      6.62565e-02
163.000      1.20758e-01
164.000      2.11408e-01
165.000      3.53157e-01
166.000      5.62744e-01
167.000      8.56403e-01
168.000      1.24689e+00
169.000      1.74041e+00
170.000      2.33429e+00
171.000      3.01600e+00
172.000      3.76387e+00
173.000      4.54940e+00
174.000      5.34082e+00
175.000      6.10716e+00
176.000      6.82279e+00
177.000      7.47170e+00
178.000      8.05106e+00
179.000      8.57301e+00
180.000      9.06371e+00
181.000      9.55893e+00
182.000      1.00965e+01
183.000      1.07075e+01
184.000      1.14074e+01
185.000      1.21913e+01
186.000      1.30323e+01
187.000      1.38849e+01
188.000      1.46930e+01
189.000      1.53990e+01
190.000      1.59542e+01
191.000      1.63279e+01
192.000      1.65138e+01
193.000      1.65324e+01
194.000      1.64290e+01
195.000      1.62672e+01
196.000      1.61197e+01
197.000      1.60563e+01
198.000      1.61336e+01
199.000      1.63872e+01
200.000      1.68274e+01
201.000      1.74403e+01
202.000      1.81909e+01
203.000      1.90281e+01
204.000      1.98893e+01
205.000      2.07064e+01
206.000      2.14110e+01
207.000      2.19424e+01
208.000      2.22558e+01
209.000      2.23289e+01
210.000      2.21660e+01
211.000      2.17961e+01
212.000      2.12664e+01
213.000      2.06336e+01
214.000      1.99558e+01
215.000      1.92880e+01
216.000      1.86810e+01
217.000      1.81821e+01
218.000      1.78353e+01
219.000      1.76783e+01
220.000      1.77358e+01
221.000      1.80128e+01
222.000      1.84888e+01
223.000      1.91187e+01
224.000      1.98383e+01
225.000      2.05770e+01
226.000      2.12703e+01
227.000      2.18723e+01
228.000      2.23609e+01
229.000      2.27370e+01
230.000      2.30163e+01
231.000      2.32181e+01
232.000      2.33539e+01
233.000      2.34205e+01
234.000      2.33999e+01
235.000      2.32657e+01
236.000      2.29936e+01
237.000      2.25728e+01
238.000      2.20138e+01
239.000      2.13511e+01
240.000      2.06395e+01
241.000      1.99479e+01
242.000      1.93511e+01
243.000      1.89222e+01
244.000      1.87263e+01
245.000      1.88138e+01
246.000      1.92130e+01
247.000      1.99197e+01
248.000      2.08890e+01
249.000      2.20295e+01
250.000      2.32059e+01
251.000      2.42516e+01
252.000      2.49916e+01
253.000      2.52707e+01
254.000      2.49819e+01
255.000      2.40866e+01
256.000      2.26208e+01
257.000      2.06869e+01
258.000      1.84329e+01
259.000      1.60259e+01
260.000      1.36262e+01
261.000      1.13687e+01
262.000      9.35322e+00
263.000      7.64181e+00
264.000      6.26284e+00
265.000      5.21665e+00
266.000      4.48195e+00
267.000      4.02171e+00
268.000      3.78859e+00
269.000      3.72987e+00
270.000      3.79182e+00
271.000      3.92333e+00
272.000      4.07856e+00
273.000      4.21864e+00
274.000      4.31264e+00
275.000      4.33833e+00
276.000      4.28287e+00
277.000      4.14315e+00
278.000      3.92545e+00
279.000      3.64372e+00
280.000      3.31651e+00
281.000      2.96328e+00
282.000      2.60107e+00
283.000      2.24277e+00
284.000      1.89710e+00
285.000      1.57003e+00
286.000      1.26651e+00
287.000      9.91490e-01
288.000      7.49896e-01
289.000      5.45663e-01
290.000      3.80601e-01
291.000      2.53698e-01
292.000      1.61216e-01
293.000      9.74823e-02
294.000      5.60066e-02
295.000      3.05412e-02
296.000      1.57975e-02
297.000      7.75527e-03
298.000      3.64019e-03
299.000      1.71558e-03
300.000      1.03146e-03
301.000      1.23534e-03
302.000      2.51171e-03
303.000      5.69358e-03
304.000      1.25747e-02
305.000      2.64245e-02
306.000      5.26462e-02
307.000      9.94041e-02
308.000      1.77899e-01
309.000      3.01857e-01
310.000      4.85809e-01
311.000      7.42044e-01
312.000      1.07664e+00
313.000      1.48571e+00
314.000      1.95344e+00
315.000      2.45352e+00
316.000      2.95440e+00
317.000      3.42750e+00
318.000      3.85565e+00
319.000      4.23858e+00
320.000      4.59285e+00
321.000      4.94593e+00
322.000      5.32654e+00
323.000      5.75542e+00
324.000      6.24030e+00
325.000      6.77743e+00
326.000      7.35873e+00
327.000      7.98129e+00
328.000      8.65490e+00
329.000      9.40379e+00
330.000      1.02614e+01
331.000      1.12595e+01
332.000      1.24143e+01
333.000      1.37148e+01
334.000      1.51158e+01
335.000      1.65385e+01
336.000      1.78779e+01
337.000      1.90164e+01
338.000      1.98393e+01
339.000      2.02513e+01
340.000      2.01900e+01
341.000      1.96348e+01
342.000      1.86103e+01
343.000      1.71832e+01
344.000      1.54548e+01
345.000      1.35475e+01
346.000      1.15901e+01
347.000      9.70352e+00
348.000      7.98909e+00
349.000      6.52200e+00
350.000      5.34938e+00
351.000      4.49211e+00
352.000      3.94822e+00
353.000      3.69621e+00
354.000      3.69766e+00
355.000      3.89987e+00
356.000      4.24015e+00
357.000      4.65239e+00
358.000      5.07574e+00
359.000      5.46287e+00
360.000      5.78536e+00
361.000      6.03414e+00
362.000      6.21481e+00
363.000      6.34007e+00
364.000      6.42194e+00
365.000      6.46660e+00
366.000      6.47284e+00
367.000      6.43381e+00
368.000      6.34063e+00
369.000      6.18617e+00
370.000      5.96815e+00
371.000      5.69074e+00
372.000      5.36484e+00
373.000      5.00694e+00
374.000      4.63679e+00
375.000      4.27438e+00
376.000      3.93679e+00
377.000      3.63590e+00
378.000      3.37771e+00
379.000      3.16327e+00
380.000      2.99084e+00
381.000      2.85796e+00
382.000      2.76229e+00
383.000      2.70041e+00
384.000      2.66537e+00
385.000      2.64425e+00
386.000      2.61776e+00
387.000      2.56289e+00
388.000      2.45824e+00
389.000      2.29028e+00
390.000      2.05793e+00
391.000      1.77357e+00
392.000      1.46005e+00
393.000      1.14476e+00
394.000      8.53079e-01
395.000      6.03349e-01
396.000      4.04595e-01
397.000      2.57068e-01
398.000      1.54685e-01
399.000      8.81208e-02
400.000      4.75165e-02
401.000      2.42482e-02
402.000      1.17094e-02
403.000      5.35036e-03
404.000      2.31313e-03
405.000      9.46169e-04
406.000      3.66169e-04
407.000      1.34069e-04
408.000      4.64416e-05
409.000      1.52199e-05
410.000      4.71891e-06
411.000      1.38418e-06
412.000      3.84120e-07
413.000      1.00846e-07
414.000      2.50481e-08
415.000      5.88583e-09
416.000      1.30846e-09
417.000      2.75190e-10
418.000      5.47548e-11
419.000      1.03070e-11
420.000      1.83552e-12
421.000      3.09248e-13
422.000      4.92915e-14
423.000      7.43287e-15
424.000      1.06037e-15
425.000      1.43113e-16
426.000      1.82734e-17
427.000      2.20739e-18
428.000      2.52264e-19
429.000      2.72742e-20
430.000      2.78975e-21
431.000      2.69960e-22
432.000      2.47144e-23
433.000      2.14052e-24
434.000      1.75392e-25
435.000      1.35962e-26
436.000      9.97107e-28
437.000      6.91809e-29
438.000      4.54098e-30
439.000      2.81988e-31
440.000      1.65665e-32
441.000      9.20767e-34
442.000      4.84158e-35
443.000      2.40848e-36
444.000      1.13349e-37
445.000      5.04673e-39
446.000      2.12580e-40
447.000      8.47134e-42
448.000      3.19375e-43
449.000      1.13912e-44
450.000      3.84374e-46
451.000      1.22704e-47
452.000      3.70580e-49
453.000      1.05882e-50
454.000      2.86209e-52
455.000      7.31918e-54
456.000      1.77076e-55
457.000      4.05299e-57
458.000      8.77627e-59
459.000      1.79789e-60
460.000      3.48446e-62
461.000      6.38889e-64
462.000      1.10824e-65
463.000      1.81870e-67
464.000      2.82363e-69
465.000      4.14736e-71
466.000      5.76309e-73
467.000      7.57629e-75
468.000      9.42274e-77
469.000      1.10870e-78
470.000      1.23417e-80
471.000      1.29972e-82
472.000      1.29492e-84
473.000      1.22055e-86
474.000      1.08840e-88
475.000      9.18204e-91
476.000      7.32838e-93
477.000      5.53344e-95
478.000      3.95277e-97
479.000      2.67132e-99
480.000     1.70793e-101
481.000     1.03307e-103
482.000     5.91168e-106
483.000     3.20044e-108
484.000     1.63918e-110
485.000     7.94261e-113
486.000     3.64097e-115
487.000     1.57903e-117
488.000     6.47862e-120
489.000     2.51474e-122
490.000     9.23467e-125
491.000     3.20825e-127
492.000     1.05447e-129
493.000     3.27883e-132
494.000     9.64544e-135
495.000     2.68438e-137
496.000     7.06779e-140
497.000     1.76053e-142
498.000     4.14877e-145
499.000     9.24944e-148
500.000     1.95088e-150
