# Gaussian folded, width=10 cm^-1
# [cm^-1] arbitrary
0.000      3.00000e+00
1.000      2.91796e+00
2.000      2.68508e+00
3.000      2.33749e+00
4.000      1.92514e+00
5.000      1.50000e+00
6.000      1.10570e+00
7.000      7.71085e-01
8.000      5.08727e-01
9.000      3.17530e-01
10.000      1.87502e-01
11.000      1.04752e-01
12.000      5.53804e-02
13.000      2.77469e-02
14.000      1.32937e-02
15.000      6.42421e-03
16.000      3.98724e-03
17.000      4.79722e-03
18.000      9.46670e-03
19.000      2.06991e-02
20.000      4.40822e-02
21.000      8.92789e-02
22.000      1.71285e-01
23.000      3.11106e-01
24.000      5.34901e-01
25.000      8.70580e-01
26.000      1.34126e+00
27.000      1.95609e+00
28.000      2.70043e+00
29.000      3.52897e+00
30.000      4.36550e+00
31.000      5.11198e+00
32.000      5.66648e+00
33.000      5.94576e+00
34.000      5.90570e+00
35.000      5.55277e+00
36.000      4.94241e+00
37.000      4.16496e+00
38.000      3.32422e+00
39.000      2.51593e+00
40.000      1.81243e+00
41.000      1.25702e+00
42.000      8.67385e-01
43.000      6.44904e-01
44.000      5.85151e-01
45.000      6.85673e-01
46.000      9.48381e-01
47.000      1.37589e+00
48.000      1.96304e+00
49.000      2.68667e+00
50.000      3.49766e+00
51.000      4.31955e+00
52.000      5.05615e+00
53.000      5.60796e+00
54.000      5.89331e+00
55.000      5.86777e+00
56.000      5.53544e+00
57.000      4.94789e+00
58.000      4.19137e+00
59.000      3.36669e+00
60.000      2.56868e+00
61.000      1.87122e+00
62.000      1.32132e+00
63.000      9.41930e-01
64.000      7.40220e-01
65.000      7.17006e-01
66.000      8.73078e-01
67.000      1.20997e+00
68.000      1.72487e+00
69.000      2.40173e+00
70.000      3.20259e+00
71.000      4.06397e+00
72.000      4.90218e+00
73.000      5.62868e+00
74.000      6.17233e+00
75.000      6.50181e+00
76.000      6.63991e+00
77.000      6.66319e+00
78.000      6.68559e+00
79.000      6.83037e+00
80.000      7.19944e+00
81.000      7.85003e+00
82.000      8.78543e+00
83.000      9.96085e+00
84.000      1.12995e+01
85.000      1.27112e+01
86.000      1.41057e+01
87.000      1.53977e+01
88.000      1.65063e+01
89.000      1.73534e+01
90.000      1.78668e+01
91.000      1.79911e+01
92.000      1.77024e+01
93.000      1.70206e+01
94.000      1.60135e+01
95.000      1.47870e+01
96.000      1.34663e+01
97.000      1.21729e+01
98.000      1.10057e+01
99.000      1.00329e+01
100.000      9.29546e+00
101.000      8.81672e+00
102.000      8.61379e+00
103.000      8.70318e+00
104.000      9.09961e+00
105.000      9.80983e+00
106.000      1.08255e+01
107.000      1.21188e+01
108.000      1.36421e+01
109.000      1.53289e+01
110.000      1.70954e+01
111.000      1.88402e+01
112.000      2.04462e+01
113.000      2.17874e+01
114.000      2.27444e+01
115.000      2.32274e+01
116.000      2.32005e+01
117.000      2.26985e+01
118.000      2.18285e+01
119.000      2.07527e+01
120.000      1.96551e+01
121.000      1.87023e+01
122.000      1.80079e+01
123.000      1.76116e+01
124.000      1.74768e+01
125.000      1.75071e+01
126.000      1.75750e+01
127.000      1.75540e+01
128.000      1.73460e+01
129.000      1.68975e+01
130.000      1.62016e+01
131.000      1.52893e+01
132.000      1.42149e+01
133.000      1.30406e+01
134.000      1.18263e+01
135.000      1.06242e+01
136.000      9.47858e+00
137.000      8.42567e+00
138.000      7.49353e+00
139.000      6.69923e+00
140.000      6.04538e+00
141.000      5.51795e+00
142.000      5.08735e+00
143.000      4.71356e+00
144.000      4.35440e+00
145.000      3.97469e+00
146.000      3.55374e+00
147.000      3.08887e+00
148.000      2.59418e+00
149.000      2.09529e+00
150.000      1.62171e+00
151.000      1.19954e+00
152.000      8.46201e-01
153.000      5.68433e-01
154.000      3.63209e-01
155.000      2.20678e-01
156.000      1.27758e-01
157.000      7.13337e-02
158.000      4.04861e-02
159.000      2.77280e-02
160.000      2.95220e-02
161.000      4.64560e-02
162.000      8.33088e-02
163.000      1.49007e-01
164.000      2.56244e-01
165.000      4.20418e-01
166.000      6.57634e-01
167.000      9.81810e-01
168.000      1.40137e+00
169.000      1.91642e+00
170.000      2.51742e+00
171.000      3.18615e+00
172.000      3.89886e+00
173.000      4.63106e+00
174.000      5.36234e+00
175.000      6.07986e+00
176.000      6.77942e+00
177.000      7.46405e+00
178.000      8.14090e+00
179.000      8.81757e+00
180.000      9.49924e+00
181.000      1.01872e+01
182.000      1.08787e+01
183.000      1.15676e+01
184.000      1.22451e+01
185.000      1.28999e+01
186.000      1.35184e+01
187.000      1.40858e+01
188.000      1.45871e+01
189.000      1.50100e+01
190.000      1.53467e+01
191.000      1.55959e+01
192.000      1.57628e+01
193.000      1.58576e+01
194.000      1.58948e+01
195.000      1.58925e+01
196.000      1.58736e+01
197.000      1.58675e+01
198.000      1.59106e+01
199.000      1.60442e+01
200.000      1.63085e+01
201.000      1.67335e+01
202.000      1.73303e+01
203.000      1.80841e+01
204.000      1.89531e+01
205.000      1.98724e+01
206.000      2.07646e+01
207.000      2.15513e+01
208.000      2.21651e+01
209.000      2.25574e+01
210.000      2.27030e+01
211.000      2.25997e+01
212.000      2.22655e+01
213.000      2.17350e+01
214.000      2.10566e+01
215.000      2.02905e+01
216.000      1.95061e+01
217.000      1.87787e+01
218.000      1.81820e+01
219.000      1.77781e+01
220.000      1.76059e+01
221.000      1.76718e+01
222.000      1.79463e+01
223.000      1.83706e+01
224.000      1.88713e+01
225.000      1.93805e+01
226.000      1.98544e+01
227.000      2.02834e+01
228.000      2.06914e+01
229.000      2.11208e+01
230.000      2.16120e+01
231.000      2.21813e+01
232.000      2.28061e+01
233.000      2.34235e+01
234.000      2.39412e+01
235.000      2.42600e+01
236.000      2.42996e+01
237.000      2.40204e+01
238.000      2.34358e+01
239.000      2.26112e+01
240.000      2.16511e+01
241.000      2.06802e+01
242.000      1.98224e+01
243.000      1.91848e+01
244.000      1.88484e+01
245.000      1.88632e+01
246.000      1.92461e+01
247.000      1.99778e+01
248.000      2.09985e+01
249.000      2.22037e+01
250.000      2.34470e+01
251.000      2.45514e+01
252.000      2.53317e+01
253.000      2.56250e+01
254.000      2.53198e+01
255.000      2.43777e+01
256.000      2.28395e+01
257.000      2.08155e+01
258.000      1.84629e+01
259.000      1.59583e+01
260.000      1.34717e+01
261.000      1.11480e+01
262.000      9.09529e+00
263.000      7.38116e+00
264.000      6.03324e+00
265.000      5.04311e+00
266.000      4.37303e+00
267.000      3.96533e+00
268.000      3.75345e+00
269.000      3.67284e+00
270.000      3.66945e+00
271.000      3.70385e+00
272.000      3.75078e+00
273.000      3.79507e+00
274.000      3.82652e+00
275.000      3.83567e+00
276.000      3.81227e+00
277.000      3.74631e+00
278.000      3.63065e+00
279.000      3.46360e+00
280.000      3.24997e+00
281.000      2.99985e+00
282.000      2.72588e+00
283.000      2.44005e+00
284.000      2.15144e+00
285.000      1.86585e+00
286.000      1.58695e+00
287.000      1.31819e+00
288.000      1.06414e+00
289.000      8.30734e-01
290.000      6.24265e-01
291.000      4.49774e-01
292.000      3.09690e-01
293.000      2.03261e-01
294.000      1.26920e-01
295.000      7.52891e-02
296.000      4.23924e-02
297.000      2.26701e-02
298.000      1.15974e-02
299.000      5.91675e-03
300.000      3.61490e-03
301.000      3.82484e-03
302.000      6.81150e-03
303.000      1.41484e-02
304.000      2.91223e-02
305.000      5.73077e-02
306.000      1.07125e-01
307.000      1.90048e-01
308.000      3.20025e-01
309.000      5.11697e-01
310.000      7.77257e-01
311.000      1.12233e+00
312.000      1.54191e+00
313.000      2.01786e+00
314.000      2.51958e+00
315.000      3.00871e+00
316.000      3.44744e+00
317.000      3.80836e+00
318.000      4.08296e+00
319.000      4.28569e+00
320.000      4.45174e+00
321.000      4.62896e+00
322.000      4.86620e+00
323.000      5.20215e+00
324.000      5.65829e+00
325.000      6.23845e+00
326.000      6.93446e+00
327.000      7.73520e+00
328.000      8.63456e+00
329.000      9.63441e+00
330.000      1.07408e+01
331.000      1.19549e+01
332.000      1.32619e+01
333.000      1.46234e+01
334.000      1.59758e+01
335.000      1.72366e+01
336.000      1.83149e+01
337.000      1.91255e+01
338.000      1.96004e+01
339.000      1.96964e+01
340.000      1.93990e+01
341.000      1.87211e+01
342.000      1.76995e+01
343.000      1.63894e+01
344.000      1.48585e+01
345.000      1.31818e+01
346.000      1.14373e+01
347.000      9.70295e+00
348.000      8.05431e+00
349.000      6.56197e+00
350.000      5.28882e+00
351.000      4.28636e+00
352.000      3.59025e+00
353.000      3.21601e+00
354.000      3.15540e+00
355.000      3.37501e+00
356.000      3.81766e+00
357.000      4.40776e+00
358.000      5.05997e+00
359.000      5.69034e+00
360.000      6.22759e+00
361.000      6.62215e+00
362.000      6.85088e+00
363.000      6.91657e+00
364.000      6.84283e+00
365.000      6.66588e+00
366.000      6.42557e+00
367.000      6.15743e+00
368.000      5.88732e+00
369.000      5.62903e+00
370.000      5.38492e+00
371.000      5.14874e+00
372.000      4.91014e+00
373.000      4.65935e+00
374.000      4.39125e+00
375.000      4.10782e+00
376.000      3.81840e+00
377.000      3.53797e+00
378.000      3.28412e+00
379.000      3.07345e+00
380.000      2.91833e+00
381.000      2.82443e+00
382.000      2.78915e+00
383.000      2.80110e+00
384.000      2.84069e+00
385.000      2.88206e+00
386.000      2.89659e+00
387.000      2.85770e+00
388.000      2.74608e+00
389.000      2.55413e+00
390.000      2.28794e+00
391.000      1.96628e+00
392.000      1.61640e+00
393.000      1.26812e+00
394.000      9.47770e-01
395.000      6.73884e-01
396.000      4.55346e-01
397.000      2.92154e-01
398.000      1.77875e-01
399.000      1.02714e-01
400.000      5.62318e-02
401.000      2.91769e-02
402.000      1.43447e-02
403.000      6.68121e-03
404.000      2.94755e-03
405.000      1.23156e-03
406.000      4.87294e-04
407.000      1.82572e-04
408.000      6.47672e-05
409.000      2.17534e-05
410.000      6.91718e-06
411.000      2.08229e-06
412.000      5.93403e-07
413.000      1.60080e-07
414.000      4.08784e-08
415.000      9.88106e-09
416.000      2.26078e-09
417.000      4.89604e-10
418.000      1.00359e-10
419.000      1.94707e-11
420.000      3.57530e-12
421.000      6.21356e-13
422.000      1.02201e-13
423.000      1.59094e-14
424.000      2.34383e-15
425.000      3.26787e-16
426.000      4.31183e-17
427.000      5.38408e-18
428.000      6.36222e-19
429.000      7.11452e-20
430.000      7.52865e-21
431.000      7.53906e-22
432.000      7.14399e-23
433.000      6.40593e-24
434.000      5.43546e-25
435.000      4.36415e-26
436.000      3.31563e-27
437.000      2.38359e-28
438.000      1.62141e-29
439.000      1.04362e-30
440.000      6.35600e-32
441.000      3.66274e-33
442.000      1.99714e-34
443.000      1.03036e-35
444.000      5.02971e-37
445.000      2.32310e-38
446.000      1.01522e-39
447.000      4.19775e-41
448.000      1.64224e-42
449.000      6.07879e-44
450.000      2.12890e-45
451.000      7.05422e-47
452.000      2.21155e-48
453.000      6.55988e-50
454.000      1.84096e-51
455.000      4.88812e-53
456.000      1.22796e-54
457.000      2.91859e-56
458.000      6.56302e-58
459.000      1.39629e-59
460.000      2.81054e-61
461.000      5.35232e-63
462.000      9.64346e-65
463.000      1.64384e-66
464.000      2.65108e-68
465.000      4.04502e-70
466.000      5.83919e-72
467.000      7.97475e-74
468.000      1.03042e-75
469.000      1.25962e-77
470.000      1.45680e-79
471.000      1.59400e-81
472.000      1.65008e-83
473.000      1.61603e-85
474.000      1.49735e-87
475.000      1.31257e-89
476.000      1.08855e-91
477.000      8.54086e-94
478.000      6.33987e-96
479.000      4.45229e-98
480.000     2.95810e-100
481.000     1.85937e-102
482.000     1.10571e-104
483.000     6.22074e-107
484.000     3.31105e-109
485.000     1.66729e-111
486.000     7.94295e-114
487.000     3.57992e-116
488.000     1.52646e-118
489.000     6.15775e-121
490.000     2.35006e-123
491.000     8.48511e-126
492.000     2.89839e-128
493.000     9.36650e-131
494.000     2.86364e-133
495.000     8.28286e-136
496.000     2.26653e-138
497.000     5.86766e-141
498.000     1.43710e-143
499.000     3.32989e-146
500.000     7.29948e-149
