# Gaussian folded, width=10 cm^-1
# [cm^-1] arbitrary
0.000      3.00000e+00
1.000      2.91796e+00
2.000      2.68508e+00
3.000      2.33749e+00
4.000      1.92514e+00
5.000      1.50000e+00
6.000      1.10570e+00
7.000      7.71085e-01
8.000      5.08727e-01
9.000      3.17529e-01
10.000      1.87500e-01
11.000      1.04746e-01
12.000      5.53594e-02
13.000      2.76810e-02
14.000      1.30983e-02
15.000      5.87635e-03
16.000      2.53430e-03
17.000      1.15394e-03
18.000      8.30690e-04
19.000      1.35343e-03
20.000      3.14158e-03
21.000      7.46431e-03
22.000      1.69831e-02
23.000      3.66530e-02
24.000      7.49405e-02
25.000      1.45137e-01
26.000      2.66251e-01
27.000      4.62663e-01
28.000      7.61567e-01
29.000      1.18749e+00
30.000      1.75401e+00
31.000      2.45430e+00
32.000      3.25326e+00
33.000      4.08516e+00
34.000      4.85963e+00
35.000      5.47649e+00
36.000      5.84668e+00
37.000      5.91321e+00
38.000      5.66558e+00
39.000      5.14244e+00
40.000      4.42178e+00
41.000      3.60186e+00
42.000      2.77948e+00
43.000      2.03210e+00
44.000      1.40808e+00
45.000      9.26035e-01
46.000      5.81149e-01
47.000      3.55015e-01
48.000      2.25568e-01
49.000      1.74959e-01
50.000      1.94468e-01
51.000      2.86434e-01
52.000      4.63377e-01
53.000      7.44418e-01
54.000      1.14901e+00
55.000      1.68844e+00
56.000      2.35655e+00
57.000      3.12211e+00
58.000      3.92602e+00
59.000      4.68580e+00
60.000      5.30822e+00
61.000      5.70754e+00
62.000      5.82479e+00
63.000      5.64206e+00
64.000      5.18704e+00
65.000      4.52637e+00
66.000      3.75009e+00
67.000      2.95236e+00
68.000      2.21454e+00
69.000      1.59491e+00
70.000      1.12668e+00
71.000      8.22758e-01
72.000      6.84029e-01
73.000      7.07217e-01
74.000      8.89484e-01
75.000      1.22829e+00
76.000      1.71692e+00
77.000      2.33747e+00
78.000      3.05447e+00
79.000      3.81204e+00
80.000      4.53721e+00
81.000      5.15022e+00
82.000      5.58006e+00
83.000      5.78174e+00
84.000      5.75025e+00
85.000      5.52660e+00
86.000      5.19336e+00
87.000      4.85999e+00
88.000      4.64146e+00
89.000      4.63552e+00
90.000      4.90481e+00
91.000      5.46833e+00
92.000      6.30404e+00
93.000      7.36085e+00
94.000      8.57492e+00
95.000      9.88380e+00
96.000      1.12331e+01
97.000      1.25738e+01
98.000      1.38532e+01
99.000      1.50052e+01
100.000      1.59477e+01
101.000      1.65889e+01
102.000      1.68440e+01
103.000      1.66547e+01
104.000      1.60063e+01
105.000      1.49368e+01
106.000      1.35348e+01
107.000      1.19279e+01
108.000      1.02644e+01
109.000      8.69178e+00
110.000      7.33664e+00
111.000      6.28943e+00
112.000      5.59662e+00
113.000      5.26209e+00
114.000      5.25718e+00
115.000      5.53673e+00
116.000      6.05645e+00
117.000      6.78665e+00
118.000      7.71800e+00
119.000      8.85762e+00
120.000      1.02168e+01
121.000      1.17946e+01
122.000      1.35634e+01
123.000      1.54607e+01
124.000      1.73920e+01
125.000      1.92413e+01
126.000      2.08879e+01
127.000      2.22234e+01
128.000      2.31637e+01
129.000      2.36552e+01
130.000      2.36751e+01
131.000      2.32283e+01
132.000      2.23447e+01
133.000      2.10773e+01
134.000      1.95021e+01
135.000      1.77174e+01
136.000      1.58398e+01
137.000      1.39963e+01
138.000      1.23121e+01
139.000      1.08967e+01
140.000      9.82989e+00
141.000      9.15200e+00
142.000      8.85989e+00
143.000      8.91021e+00
144.000      9.22917e+00
145.000      9.72688e+00
146.000      1.03127e+01
147.000      1.09079e+01
148.000      1.14530e+01
149.000      1.19078e+01
150.000      1.22472e+01
151.000      1.24541e+01
152.000      1.25138e+01
153.000      1.24131e+01
154.000      1.21426e+01
155.000      1.17023e+01
156.000      1.11055e+01
157.000      1.03808e+01
158.000      9.56826e+00
159.000      8.71309e+00
160.000      7.85745e+00
161.000      7.03335e+00
162.000      6.25878e+00
163.000      5.53769e+00
164.000      4.86365e+00
165.000      4.22573e+00
166.000      3.61467e+00
167.000      3.02738e+00
168.000      2.46866e+00
169.000      1.94975e+00
170.000      1.48469e+00
171.000      1.08588e+00
172.000      7.60542e-01
173.000      5.09139e-01
174.000      3.25877e-01
175.000      2.00825e-01
176.000      1.22729e-01
177.000      8.17015e-02
178.000      7.12481e-02
179.000      8.94197e-02
180.000      1.39080e-01
181.000      2.27280e-01
182.000      3.63720e-01
183.000      5.58307e-01
184.000      8.18056e-01
185.000      1.14392e+00
186.000      1.52846e+00
187.000      1.95529e+00
188.000      2.40087e+00
189.000      2.83858e+00
190.000      3.24385e+00
191.000      3.59897e+00
192.000      3.89607e+00
193.000      4.13751e+00
194.000      4.33413e+00
195.000      4.50240e+00
196.000      4.66173e+00
197.000      4.83271e+00
198.000      5.03588e+00
199.000      5.29033e+00
200.000      5.61153e+00
201.000      6.00843e+00
202.000      6.48099e+00
203.000      7.01948e+00
204.000      7.60644e+00
205.000      8.22071e+00
206.000      8.84167e+00
207.000      9.45171e+00
208.000      1.00355e+01
209.000      1.05769e+01
210.000      1.10549e+01
211.000      1.14429e+01
212.000      1.17114e+01
213.000      1.18347e+01
214.000      1.17993e+01
215.000      1.16105e+01
216.000      1.12936e+01
217.000      1.08909e+01
218.000      1.04536e+01
219.000      1.00319e+01
220.000      9.66696e+00
221.000      9.38512e+00
222.000      9.19676e+00
223.000      9.09828e+00
224.000      9.07642e+00
225.000      9.11350e+00
226.000      9.19195e+00
227.000      9.29692e+00
228.000      9.41648e+00
229.000      9.53932e+00
230.000      9.65159e+00
231.000      9.73455e+00
232.000      9.76498e+00
233.000      9.71908e+00
234.000      9.57875e+00
235.000      9.33799e+00
236.000      9.00656e+00
237.000      8.60916e+00
238.000      8.18034e+00
239.000      7.75702e+00
240.000      7.37146e+00
241.000      7.04715e+00
242.000      6.79811e+00
243.000      6.63060e+00
244.000      6.54502e+00
245.000      6.53625e+00
246.000      6.59199e+00
247.000      6.69048e+00
248.000      6.79973e+00
249.000      6.88029e+00
250.000      6.89188e+00
251.000      6.80232e+00
252.000      6.59580e+00
253.000      6.27740e+00
254.000      5.87176e+00
255.000      5.41636e+00
256.000      4.95129e+00
257.000      4.50895e+00
258.000      4.10702e+00
259.000      3.74642e+00
260.000      3.41469e+00
261.000      3.09287e+00
262.000      2.76352e+00
263.000      2.41706e+00
264.000      2.05473e+00
265.000      1.68770e+00
266.000      1.33317e+00
267.000      1.00921e+00
268.000      7.30166e-01
269.000      5.03901e-01
270.000      3.31207e-01
271.000      2.07105e-01
272.000      1.23095e-01
273.000      6.94975e-02
274.000      3.72635e-02
275.000      1.90022e-02
276.000      9.31021e-03
277.000      4.63446e-03
278.000      2.93796e-03
279.000      3.37986e-03
280.000      6.13573e-03
281.000      1.24060e-02
282.000      2.45953e-02
283.000      4.65885e-02
284.000      8.39941e-02
285.000      1.44194e-01
286.000      2.36041e-01
287.000      3.69145e-01
288.000      5.52799e-01
289.000      7.94799e-01
290.000      1.10047e+00
291.000      1.47209e+00
292.000      1.90883e+00
293.000      2.40677e+00
294.000      2.95877e+00
295.000      3.55384e+00
296.000      4.17626e+00
297.000      4.80516e+00
298.000      5.41533e+00
299.000      5.98002e+00
300.000      6.47559e+00
301.000      6.88680e+00
302.000      7.21139e+00
303.000      7.46205e+00
304.000      7.66501e+00
305.000      7.85528e+00
306.000      8.06986e+00
307.000      8.34073e+00
308.000      8.68927e+00
309.000      9.12318e+00
310.000      9.63622e+00
311.000      1.02101e+01
312.000      1.08175e+01
313.000      1.14263e+01
314.000      1.20030e+01
315.000      1.25176e+01
316.000      1.29484e+01
317.000      1.32869e+01
318.000      1.35423e+01
319.000      1.37428e+01
320.000      1.39342e+01
321.000      1.41747e+01
322.000      1.45275e+01
323.000      1.50528e+01
324.000      1.58029e+01
325.000      1.68175e+01
326.000      1.81222e+01
327.000      1.97242e+01
328.000      2.16074e+01
329.000      2.37248e+01
330.000      2.59938e+01
331.000      2.82966e+01
332.000      3.04909e+01
333.000      3.24297e+01
334.000      3.39871e+01
335.000      3.50830e+01
336.000      3.56987e+01
337.000      3.58789e+01
338.000      3.57180e+01
339.000      3.53361e+01
340.000      3.48508e+01
341.000      3.43542e+01
342.000      3.39002e+01
343.000      3.35039e+01
344.000      3.31496e+01
345.000      3.28039e+01
346.000      3.24261e+01
347.000      3.19754e+01
348.000      3.14123e+01
349.000      3.06989e+01
350.000      2.97994e+01
351.000      2.86833e+01
352.000      2.73314e+01
353.000      2.57423e+01
354.000      2.39381e+01
355.000      2.19655e+01
356.000      1.98942e+01
357.000      1.78109e+01
358.000      1.58108e+01
359.000      1.39861e+01
360.000      1.24151e+01
361.000      1.11504e+01
362.000      1.02117e+01
363.000      9.58285e+00
364.000      9.21530e+00
365.000      9.03676e+00
366.000      8.96315e+00
367.000      8.91042e+00
368.000      8.80447e+00
369.000      8.58787e+00
370.000      8.22408e+00
371.000      7.70009e+00
372.000      7.02801e+00
373.000      6.24524e+00
374.000      5.41230e+00
375.000      4.60757e+00
376.000      3.91900e+00
377.000      3.43405e+00
378.000      3.22940e+00
379.000      3.36196e+00
380.000      3.86222e+00
381.000      4.73026e+00
382.000      5.93459e+00
383.000      7.41427e+00
384.000      9.08402e+00
385.000      1.08423e+01
386.000      1.25807e+01
387.000      1.41941e+01
388.000      1.55885e+01
389.000      1.66867e+01
390.000      1.74317e+01
391.000      1.77874e+01
392.000      1.77387e+01
393.000      1.72907e+01
394.000      1.64682e+01
395.000      1.53146e+01
396.000      1.38899e+01
397.000      1.22689e+01
398.000      1.05370e+01
399.000      8.78510e+00
400.000      7.10255e+00
401.000      5.56886e+00
402.000      4.24588e+00
403.000      3.17168e+00
404.000      2.35766e+00
405.000      1.78950e+00
406.000      1.43174e+00
407.000      1.23493e+00
408.000      1.14399e+00
409.000      1.10643e+00
410.000      1.07920e+00
411.000      1.03306e+00
412.000      9.54088e-01
413.000      8.42102e-01
414.000      7.06785e-01
415.000      5.62667e-01
416.000      4.24325e-01
417.000      3.02935e-01
418.000      2.04673e-01
419.000      1.30847e-01
420.000      7.91441e-02
421.000      4.52910e-02
422.000      2.45206e-02
423.000      1.25596e-02
424.000      6.08607e-03
425.000      2.79009e-03
426.000      1.21009e-03
427.000      4.96519e-04
428.000      1.92740e-04
429.000      7.07823e-05
430.000      2.45921e-05
431.000      8.08322e-06
432.000      2.51357e-06
433.000      7.39459e-07
434.000      2.05805e-07
435.000      5.41894e-08
436.000      1.34987e-08
437.000      3.18116e-09
438.000      7.09246e-10
439.000      1.49598e-10
440.000      2.98520e-11
441.000      5.63557e-12
442.000      1.00651e-12
443.000      1.70067e-13
444.000      2.71855e-14
445.000      4.11123e-15
446.000      5.88200e-16
447.000      7.96150e-17
448.000      1.01949e-17
449.000      1.23506e-18
450.000      1.41550e-19
451.000      1.53480e-20
452.000      1.57438e-21
453.000      1.52787e-22
454.000      1.40275e-23
455.000      1.21840e-24
456.000      1.00119e-25
457.000      7.78331e-27
458.000      5.72438e-28
459.000      3.98299e-29
460.000      2.62186e-30
461.000      1.63277e-31
462.000      9.61965e-33
463.000      5.36181e-34
464.000      2.82736e-35
465.000      1.41048e-36
466.000      6.65690e-38
467.000      2.97231e-39
468.000      1.25555e-40
469.000      5.01755e-42
470.000      1.89700e-43
471.000      6.78514e-45
472.000      2.29599e-46
473.000      7.35016e-48
474.000      2.22609e-49
475.000      6.37830e-51
476.000      1.72896e-52
477.000      4.43388e-54
478.000      1.07572e-55
479.000      2.46907e-57
480.000      5.36147e-59
481.000      1.10142e-60
482.000      2.14062e-62
483.000      3.93589e-64
484.000      6.84643e-66
485.000      1.12669e-67
486.000      1.75412e-69
487.000      2.58365e-71
488.000      3.60019e-73
489.000      4.74608e-75
490.000      5.91919e-77
491.000      6.98404e-79
492.000      7.79594e-81
493.000      8.23282e-83
494.000      8.22519e-85
495.000      7.77429e-87
496.000      6.95174e-89
497.000      5.88090e-91
498.000      4.70664e-93
499.000      3.56366e-95
500.000      2.55270e-97
