# Gaussian folded, width=10 cm^-1
# [cm^-1] arbitrary
0.000      3.00000e+00
1.000      2.91796e+00
2.000      2.68508e+00
3.000      2.33749e+00
4.000      1.92514e+00
5.000      1.50000e+00
6.000      1.10570e+00
7.000      7.71085e-01
8.000      5.08727e-01
9.000      3.17530e-01
10.000      1.87502e-01
11.000      1.04752e-01
12.000      5.53797e-02
13.000      2.77446e-02
14.000      1.32876e-02
15.000      6.40877e-03
16.000      3.95042e-03
17.000      4.71476e-03
18.000      9.29339e-03
19.000      2.03579e-02
20.000      4.34537e-02
21.000      8.81989e-02
22.000      1.69559e-01
23.000      3.08550e-01
24.000      5.31417e-01
25.000      8.66253e-01
26.000      1.33645e+00
27.000      1.95145e+00
28.000      2.69687e+00
29.000      3.52744e+00
30.000      4.36674e+00
31.000      5.11626e+00
32.000      5.67342e+00
33.000      5.95436e+00
34.000      5.91457e+00
35.000      5.56051e+00
36.000      4.94794e+00
37.000      4.16777e+00
38.000      3.32441e+00
39.000      2.51401e+00
40.000      1.80907e+00
41.000      1.25282e+00
42.000      8.62709e-01
43.000      6.39878e-01
44.000      5.79795e-01
45.000      6.80126e-01
46.000      9.43139e-01
47.000      1.37195e+00
48.000      1.96190e+00
49.000      2.68999e+00
50.000      3.50683e+00
51.000      4.33500e+00
52.000      5.07697e+00
53.000      5.63178e+00
54.000      5.91666e+00
55.000      5.88695e+00
56.000      5.54743e+00
57.000      4.95115e+00
58.000      4.18614e+00
59.000      3.35472e+00
60.000      2.55257e+00
61.000      1.85360e+00
62.000      1.30415e+00
63.000      9.26069e-01
64.000      7.25354e-01
65.000      7.01795e-01
66.000      8.55526e-01
67.000      1.18792e+00
68.000      1.69660e+00
69.000      2.36660e+00
70.000      3.16159e+00
71.000      4.02006e+00
72.000      4.86008e+00
73.000      5.59417e+00
74.000      6.15104e+00
75.000      6.49782e+00
76.000      6.65458e+00
77.000      6.69454e+00
78.000      6.72849e+00
79.000      6.87747e+00
80.000      7.24275e+00
81.000      7.88279e+00
82.000      8.80398e+00
83.000      9.96610e+00
84.000      1.12977e+01
85.000      1.27132e+01
86.000      1.41251e+01
87.000      1.54475e+01
88.000      1.65949e+01
89.000      1.74812e+01
90.000      1.80247e+01
91.000      1.81612e+01
92.000      1.78617e+01
93.000      1.71462e+01
94.000      1.60872e+01
95.000      1.47994e+01
96.000      1.34176e+01
97.000      1.20710e+01
98.000      1.08632e+01
99.000      9.86412e+00
100.000      9.11380e+00
101.000      8.63491e+00
102.000      8.44516e+00
103.000      8.56367e+00
104.000      9.00875e+00
105.000      9.78941e+00
106.000      1.08957e+01
107.000      1.22921e+01
108.000      1.39172e+01
109.000      1.56865e+01
110.000      1.74987e+01
111.000      1.92402e+01
112.000      2.07916e+01
113.000      2.20361e+01
114.000      2.28730e+01
115.000      2.32352e+01
116.000      2.31069e+01
117.000      2.25355e+01
118.000      2.16304e+01
119.000      2.05466e+01
120.000      1.94556e+01
121.000      1.85110e+01
122.000      1.78172e+01
123.000      1.74123e+01
124.000      1.72662e+01
125.000      1.72959e+01
126.000      1.73898e+01
127.000      1.74346e+01
128.000      1.73364e+01
129.000      1.70331e+01
130.000      1.64979e+01
131.000      1.57346e+01
132.000      1.47714e+01
133.000      1.36530e+01
134.000      1.24349e+01
135.000      1.11776e+01
136.000      9.94075e+00
137.000      8.77732e+00
138.000      7.72783e+00
139.000      6.81576e+00
140.000      6.04566e+00
141.000      5.40433e+00
142.000      4.86500e+00
143.000      4.39355e+00
144.000      3.95570e+00
145.000      3.52377e+00
146.000      3.08155e+00
147.000      2.62643e+00
148.000      2.16812e+00
149.000      1.72461e+00
150.000      1.31644e+00
151.000      9.61203e-01
152.000      6.69651e-01
153.000      4.44301e-01
154.000      2.80364e-01
155.000      1.68184e-01
156.000      9.61270e-02
157.000      5.30602e-02
158.000      3.00093e-02
159.000      2.10120e-02
160.000      2.34401e-02
161.000      3.81131e-02
162.000      6.94040e-02
163.000      1.25339e-01
164.000      2.17488e-01
165.000      3.60350e-01
166.000      5.69934e-01
167.000      8.61511e-01
168.000      1.24678e+00
169.000      1.73107e+00
170.000      2.31146e+00
171.000      2.97629e+00
172.000      3.70655e+00
173.000      4.47870e+00
174.000      5.26818e+00
175.000      6.05285e+00
176.000      6.81559e+00
177.000      7.54589e+00
178.000      8.24034e+00
179.000      8.90199e+00
180.000      9.53870e+00
181.000      1.01603e+01
182.000      1.07752e+01
183.000      1.13866e+01
184.000      1.19905e+01
185.000      1.25757e+01
186.000      1.31262e+01
187.000      1.36258e+01
188.000      1.40621e+01
189.000      1.44293e+01
190.000      1.47287e+01
191.000      1.49669e+01
192.000      1.51530e+01
193.000      1.52976e+01
194.000      1.54128e+01
195.000      1.55130e+01
196.000      1.56166e+01
197.000      1.57463e+01
198.000      1.59274e+01
199.000      1.61853e+01
200.000      1.65419e+01
201.000      1.70114e+01
202.000      1.75958e+01
203.000      1.82808e+01
204.000      1.90332e+01
205.000      1.98007e+01
206.000      2.05180e+01
207.000      2.11159e+01
208.000      2.15352e+01
209.000      2.17385e+01
210.000      2.17184e+01
211.000      2.14980e+01
212.000      2.11249e+01
213.000      2.06606e+01
214.000      2.01693e+01
215.000      1.97093e+01
216.000      1.93282e+01
217.000      1.90616e+01
218.000      1.89327e+01
219.000      1.89509e+01
220.000      1.91107e+01
221.000      1.93910e+01
222.000      1.97579e+01
223.000      2.01712e+01
224.000      2.05936e+01
225.000      2.10011e+01
226.000      2.13890e+01
227.000      2.17716e+01
228.000      2.21749e+01
229.000      2.26238e+01
230.000      2.31277e+01
231.000      2.36697e+01
232.000      2.42029e+01
233.000      2.46552e+01
234.000      2.49438e+01
235.000      2.49936e+01
236.000      2.47562e+01
237.000      2.42235e+01
238.000      2.34315e+01
239.000      2.24544e+01
240.000      2.13922e+01
241.000      2.03541e+01
242.000      1.94454e+01
243.000      1.87587e+01
244.000      1.83686e+01
245.000      1.83287e+01
246.000      1.86654e+01
247.000      1.93698e+01
248.000      2.03873e+01
249.000      2.16119e+01
250.000      2.28891e+01
251.000      2.40305e+01
252.000      2.48416e+01
253.000      2.51537e+01
254.000      2.48550e+01
255.000      2.39108e+01
256.000      2.23677e+01
257.000      2.03417e+01
258.000      1.79948e+01
259.000      1.55064e+01
260.000      1.30477e+01
261.000      1.07629e+01
262.000      8.75913e+00
263.000      7.10323e+00
264.000      5.82273e+00
265.000      4.91007e+00
266.000      4.32848e+00
267.000      4.02001e+00
268.000      3.91489e+00
269.000      3.94154e+00
270.000      4.03511e+00
271.000      4.14330e+00
272.000      4.22850e+00
273.000      4.26687e+00
274.000      4.24550e+00
275.000      4.15954e+00
276.000      4.01010e+00
277.000      3.80335e+00
278.000      3.55008e+00
279.000      3.26476e+00
280.000      2.96355e+00
281.000      2.66141e+00
282.000      2.36924e+00
283.000      2.09231e+00
284.000      1.83062e+00
285.000      1.58115e+00
286.000      1.34092e+00
287.000      1.10952e+00
288.000      8.90031e-01
289.000      6.88212e-01
290.000      5.10530e-01
291.000      3.61970e-01
292.000      2.44594e-01
293.000      1.57192e-01
294.000      9.59326e-02
295.000      5.55391e-02
296.000      3.04844e-02
297.000      1.58737e-02
298.000      7.89276e-03
299.000      3.89457e-03
300.000      2.28005e-03
301.000      2.33634e-03
302.000      4.15709e-03
303.000      8.72228e-03
304.000      1.81678e-02
305.000      3.62225e-02
306.000      6.87204e-02
307.000      1.24009e-01
308.000      2.12995e-01
309.000      3.48540e-01
310.000      5.44017e-01
311.000      8.11057e-01
312.000      1.15686e+00
313.000      1.58179e+00
314.000      2.07799e+00
315.000      2.62994e+00
316.000      3.21680e+00
317.000      3.81652e+00
318.000      4.41023e+00
319.000      4.98581e+00
320.000      5.53939e+00
321.000      6.07417e+00
322.000      6.59716e+00
323.000      7.11509e+00
324.000      7.63139e+00
325.000      8.14575e+00
326.000      8.65650e+00
327.000      9.16498e+00
328.000      9.67943e+00
329.000      1.02159e+01
330.000      1.07953e+01
331.000      1.14364e+01
332.000      1.21485e+01
333.000      1.29247e+01
334.000      1.37406e+01
335.000      1.45562e+01
336.000      1.53214e+01
337.000      1.59824e+01
338.000      1.64877e+01
339.000      1.67924e+01
340.000      1.68621e+01
341.000      1.66750e+01
342.000      1.62243e+01
343.000      1.55198e+01
344.000      1.45872e+01
345.000      1.34673e+01
346.000      1.22129e+01
347.000      1.08857e+01
348.000      9.55242e+00
349.000      8.28198e+00
350.000      7.14128e+00
351.000      6.19078e+00
352.000      5.47854e+00
353.000      5.03352e+00
354.000      4.85976e+00
355.000      4.93320e+00
356.000      5.20314e+00
357.000      5.59878e+00
358.000      6.04001e+00
359.000      6.44993e+00
360.000      6.76625e+00
361.000      6.94879e+00
362.000      6.98175e+00
363.000      6.87089e+00
364.000      6.63731e+00
365.000      6.31019e+00
366.000      5.92074e+00
367.000      5.49878e+00
368.000      5.07179e+00
369.000      4.66526e+00
370.000      4.30264e+00
371.000      4.00363e+00
372.000      3.78089e+00
373.000      3.63637e+00
374.000      3.55950e+00
375.000      3.52865e+00
376.000      3.51633e+00
377.000      3.49663e+00
378.000      3.45250e+00
379.000      3.38002e+00
380.000      3.28825e+00
381.000      3.19449e+00
382.000      3.11684e+00
383.000      3.06656e+00
384.000      3.04281e+00
385.000      3.03141e+00
386.000      3.00810e+00
387.000      2.94507e+00
388.000      2.81885e+00
389.000      2.61715e+00
390.000      2.34255e+00
391.000      2.01198e+00
392.000      1.65245e+00
393.000      1.29445e+00
394.000      9.65322e-01
395.000      6.84334e-01
396.000      4.60685e-01
397.000      2.94253e-01
398.000      1.78215e-01
399.000      1.02296e-01
400.000      5.56291e-02
401.000      2.86510e-02
402.000      1.39724e-02
403.000      6.45086e-03
404.000      2.81913e-03
405.000      1.16605e-03
406.000      4.56437e-04
407.000      1.69075e-04
408.000      5.92636e-05
409.000      1.96557e-05
410.000      6.16830e-06
411.000      1.83150e-06
412.000      5.14525e-07
413.000      1.36759e-07
414.000      3.43911e-08
415.000      8.18234e-09
416.000      1.84181e-09
417.000      3.92233e-10
418.000      7.90270e-11
419.000      1.50638e-11
420.000      2.71659e-12
421.000      4.63490e-13
422.000      7.48139e-14
423.000      1.14248e-14
424.000      1.65060e-15
425.000      2.25611e-16
426.000      2.91744e-17
427.000      3.56918e-18
428.000      4.13104e-19
429.000      4.52349e-20
430.000      4.68610e-21
431.000      4.59275e-22
432.000      4.25852e-23
433.000      3.73566e-24
434.000      3.10027e-25
435.000      2.43419e-26
436.000      1.80815e-27
437.000      1.27068e-28
438.000      8.44816e-30
439.000      5.31387e-31
440.000      3.16216e-32
441.000      1.78024e-33
442.000      9.48196e-35
443.000      4.77794e-36
444.000      2.27775e-37
445.000      1.02729e-38
446.000      4.38336e-40
447.000      1.76947e-41
448.000      6.75773e-43
449.000      2.44164e-44
450.000      8.34617e-46
451.000      2.69908e-47
452.000      8.25784e-49
453.000      2.39023e-50
454.000      6.54543e-52
455.000      1.69574e-53
456.000      4.15626e-55
457.000      9.63761e-57
458.000      2.11427e-58
459.000      4.38806e-60
460.000      8.61606e-62
461.000      1.60055e-63
462.000      2.81288e-65
463.000      4.67688e-67
464.000      7.35673e-69
465.000      1.09480e-70
466.000      1.54138e-72
467.000      2.05309e-74
468.000      2.58719e-76
469.000      3.08441e-78
470.000      3.47888e-80
471.000      3.71218e-82
472.000      3.74750e-84
473.000      3.57912e-86
474.000      3.23396e-88
475.000      2.76450e-90
476.000      2.23574e-92
477.000      1.71060e-94
478.000      1.23822e-96
479.000      8.47951e-99
480.000     5.49372e-101
481.000     3.36733e-103
482.000     1.95266e-105
483.000     1.07125e-107
484.000     5.56005e-110
485.000     2.73016e-112
486.000     1.26830e-114
487.000     5.57413e-117
488.000     2.31769e-119
489.000     9.11709e-122
490.000     3.39297e-124
491.000     1.19461e-126
492.000     3.97920e-129
493.000     1.25397e-131
494.000     3.73854e-134
495.000     1.05448e-136
496.000     2.81384e-139
497.000     7.10366e-142
498.000     1.69663e-144
499.000     3.83367e-147
500.000     8.19531e-150
