# Gaussian folded, width=10 cm^-1
# [cm^-1] arbitrary
0.000      3.00000e+00
1.000      2.91796e+00
2.000      2.68508e+00
3.000      2.33749e+00
4.000      1.92514e+00
5.000      1.50000e+00
6.000      1.10570e+00
7.000      7.71085e-01
8.000      5.08727e-01
9.000      3.17530e-01
10.000      1.87502e-01
11.000      1.04752e-01
12.000      5.53795e-02
13.000      2.77441e-02
14.000      1.32862e-02
15.000      6.40500e-03
16.000      3.94085e-03
17.000      4.69179e-03
18.000      9.24141e-03
19.000      2.02469e-02
20.000      4.32305e-02
21.000      8.77759e-02
22.000      1.68805e-01
23.000      3.07287e-01
24.000      5.29432e-01
25.000      8.63332e-01
26.000      1.33243e+00
27.000      1.94632e+00
28.000      2.69080e+00
29.000      3.52088e+00
30.000      4.36035e+00
31.000      5.11083e+00
32.000      5.66973e+00
33.000      5.95298e+00
34.000      5.91572e+00
35.000      5.56401e+00
36.000      4.95325e+00
37.000      4.17411e+00
38.000      3.33098e+00
39.000      2.52010e+00
40.000      1.81422e+00
41.000      1.25679e+00
42.000      8.65490e-01
43.000      6.41579e-01
44.000      5.80600e-01
45.000      6.80235e-01
46.000      9.42741e-01
47.000      1.37121e+00
48.000      1.96097e+00
49.000      2.68900e+00
50.000      3.50586e+00
51.000      4.33413e+00
52.000      5.07624e+00
53.000      5.63122e+00
54.000      5.91630e+00
55.000      5.88683e+00
56.000      5.54760e+00
57.000      4.95165e+00
58.000      4.18697e+00
59.000      3.35588e+00
60.000      2.55404e+00
61.000      1.85542e+00
62.000      1.30651e+00
63.000      9.29408e-01
64.000      7.30430e-01
65.000      7.09735e-01
66.000      8.67747e-01
67.000      1.20591e+00
68.000      1.72149e+00
69.000      2.39864e+00
70.000      3.19959e+00
71.000      4.06097e+00
72.000      4.89902e+00
73.000      5.62489e+00
74.000      6.16680e+00
75.000      6.49248e+00
76.000      6.62349e+00
77.000      6.63510e+00
78.000      6.64028e+00
79.000      6.76222e+00
80.000      7.10441e+00
81.000      7.72788e+00
82.000      8.64207e+00
83.000      9.81002e+00
84.000      1.11629e+01
85.000      1.26159e+01
86.000      1.40794e+01
87.000      1.54622e+01
88.000      1.66710e+01
89.000      1.76108e+01
90.000      1.81921e+01
91.000      1.83462e+01
92.000      1.80433e+01
93.000      1.73071e+01
94.000      1.62162e+01
95.000      1.48924e+01
96.000      1.34760e+01
97.000      1.20988e+01
98.000      1.08626e+01
99.000      9.83203e+00
100.000      9.04086e+00
101.000      8.50689e+00
102.000      8.24740e+00
103.000      8.28724e+00
104.000      8.65647e+00
105.000      9.37972e+00
106.000      1.04627e+01
107.000      1.18814e+01
108.000      1.35779e+01
109.000      1.54612e+01
110.000      1.74140e+01
111.000      1.93003e+01
112.000      2.09762e+01
113.000      2.23047e+01
114.000      2.31727e+01
115.000      2.35125e+01
116.000      2.33184e+01
117.000      2.26563e+01
118.000      2.16573e+01
119.000      2.04971e+01
120.000      1.93624e+01
121.000      1.84149e+01
122.000      1.77607e+01
123.000      1.74337e+01
124.000      1.73962e+01
125.000      1.75543e+01
126.000      1.77833e+01
127.000      1.79545e+01
128.000      1.79584e+01
129.000      1.77191e+01
130.000      1.72006e+01
131.000      1.64052e+01
132.000      1.53673e+01
133.000      1.41445e+01
134.000      1.28071e+01
135.000      1.14284e+01
136.000      1.00753e+01
137.000      8.80212e+00
138.000      7.64746e+00
139.000      6.63322e+00
140.000      5.76606e+00
141.000      5.03925e+00
142.000      4.43491e+00
143.000      3.92676e+00
144.000      3.48417e+00
145.000      3.07752e+00
146.000      2.68380e+00
147.000      2.29098e+00
148.000      1.89929e+00
149.000      1.51912e+00
150.000      1.16617e+00
151.000      8.55847e-01
152.000      5.98750e-01
153.000      3.98494e-01
154.000      2.51966e-01
155.000      1.51288e-01
156.000      8.64349e-02
157.000      4.75701e-02
158.000      2.66601e-02
159.000      1.83351e-02
160.000      2.02578e-02
161.000      3.33123e-02
162.000      6.18195e-02
163.000      1.13775e-01
164.000      2.00896e-01
165.000      3.38128e-01
166.000      5.42256e-01
167.000      8.29494e-01
168.000      1.21226e+00
169.000      1.69585e+00
170.000      2.27580e+00
171.000      2.93708e+00
172.000      3.65542e+00
173.000      4.40084e+00
174.000      5.14280e+00
175.000      5.85587e+00
176.000      6.52484e+00
177.000      7.14820e+00
178.000      7.73893e+00
179.000      8.32202e+00
180.000      8.92863e+00
181.000      9.58766e+00
182.000      1.03167e+01
183.000      1.11145e+01
184.000      1.19585e+01
185.000      1.28068e+01
186.000      1.36074e+01
187.000      1.43090e+01
188.000      1.48732e+01
189.000      1.52835e+01
190.000      1.55474e+01
191.000      1.56945e+01
192.000      1.57681e+01
193.000      1.58165e+01
194.000      1.58842e+01
195.000      1.60058e+01
196.000      1.62040e+01
197.000      1.64899e+01
198.000      1.68658e+01
199.000      1.73282e+01
200.000      1.78704e+01
201.000      1.84831e+01
202.000      1.91537e+01
203.000      1.98633e+01
204.000      2.05847e+01
205.000      2.12811e+01
206.000      2.19086e+01
207.000      2.24215e+01
208.000      2.27802e+01
209.000      2.29584e+01
210.000      2.29485e+01
211.000      2.27625e+01
212.000      2.24294e+01
213.000      2.19910e+01
214.000      2.14953e+01
215.000      2.09919e+01
216.000      2.05274e+01
217.000      2.01408e+01
218.000      1.98600e+01
219.000      1.96977e+01
220.000      1.96494e+01
221.000      1.96931e+01
222.000      1.97931e+01
223.000      1.99066e+01
224.000      1.99933e+01
225.000      2.00246e+01
226.000      1.99910e+01
227.000      1.99052e+01
228.000      1.97996e+01
229.000      1.97185e+01
230.000      1.97068e+01
231.000      1.97979e+01
232.000      2.00040e+01
233.000      2.03115e+01
234.000      2.06836e+01
235.000      2.10673e+01
236.000      2.14046e+01
237.000      2.16435e+01
238.000      2.17457e+01
239.000      2.16917e+01
240.000      2.14819e+01
241.000      2.11380e+01
242.000      2.07029e+01
243.000      2.02411e+01
244.000      1.98352e+01
245.000      1.95777e+01
246.000      1.95550e+01
247.000      1.98277e+01
248.000      2.04089e+01
249.000      2.12497e+01
250.000      2.22369e+01
251.000      2.32056e+01
252.000      2.39669e+01
253.000      2.43439e+01
254.000      2.42056e+01
255.000      2.34908e+01
256.000      2.22150e+01
257.000      2.04603e+01
258.000      1.83534e+01
259.000      1.60403e+01
260.000      1.36655e+01
261.000      1.13585e+01
262.000      9.22795e+00
263.000      7.36059e+00
264.000      5.82053e+00
265.000      4.64796e+00
266.000      3.85668e+00
267.000      3.43224e+00
268.000      3.33221e+00
269.000      3.48956e+00
270.000      3.81937e+00
271.000      4.22817e+00
272.000      4.62494e+00
273.000      4.93206e+00
274.000      5.09458e+00
275.000      5.08583e+00
276.000      4.90832e+00
277.000      4.58942e+00
278.000      4.17317e+00
279.000      3.70986e+00
280.000      3.24598e+00
281.000      2.81648e+00
282.000      2.44073e+00
283.000      2.12254e+00
284.000      1.85359e+00
285.000      1.61912e+00
286.000      1.40394e+00
287.000      1.19723e+00
288.000      9.94924e-01
289.000      7.99409e-01
290.000      6.17197e-01
291.000      4.55775e-01
292.000      3.20856e-01
293.000      2.14827e-01
294.000      1.36579e-01
295.000      8.23570e-02
296.000      4.70658e-02
297.000      2.54780e-02
298.000      1.30594e-02
299.000      6.33727e-03
300.000      2.91284e-03
301.000      1.27443e-03
302.000      5.51007e-04
303.000      2.94693e-04
304.000      3.35315e-04
305.000      7.23768e-04
306.000      1.77732e-03
307.000      4.25075e-03
308.000      9.66998e-03
309.000      2.08628e-02
310.000      4.26833e-02
311.000      8.28373e-02
312.000      1.52576e-01
313.000      2.66877e-01
314.000      4.43661e-01
315.000      7.01703e-01
316.000      1.05728e+00
317.000      1.52017e+00
318.000      2.09013e+00
319.000      2.75527e+00
320.000      3.49334e+00
321.000      4.27583e+00
322.000      5.07396e+00
323.000      5.86454e+00
324.000      6.63400e+00
325.000      7.37983e+00
326.000      8.10975e+00
327.000      8.83982e+00
328.000      9.59212e+00
329.000      1.03922e+01
330.000      1.12653e+01
331.000      1.22300e+01
332.000      1.32911e+01
333.000      1.44313e+01
334.000      1.56069e+01
335.000      1.67489e+01
336.000      1.77702e+01
337.000      1.85785e+01
338.000      1.90899e+01
339.000      1.92419e+01
340.000      1.90008e+01
341.000      1.83650e+01
342.000      1.73634e+01
343.000      1.60510e+01
344.000      1.45035e+01
345.000      1.28106e+01
346.000      1.10707e+01
347.000      9.38370e+00
348.000      7.84592e+00
349.000      6.54309e+00
350.000      5.54398e+00
351.000      4.89372e+00
352.000      4.60791e+00
353.000      4.66899e+00
354.000      5.02647e+00
355.000      5.60222e+00
356.000      6.30099e+00
357.000      7.02427e+00
358.000      7.68461e+00
359.000      8.21673e+00
360.000      8.58283e+00
361.000      8.77133e+00
362.000      8.79049e+00
363.000      8.65996e+00
364.000      8.40352e+00
365.000      8.04539e+00
366.000      7.61015e+00
367.000      7.12498e+00
368.000      6.62138e+00
369.000      6.13415e+00
370.000      5.69674e+00
371.000      5.33400e+00
372.000      5.05507e+00
373.000      4.84954e+00
374.000      4.68899e+00
375.000      4.53418e+00
376.000      4.34584e+00
377.000      4.09570e+00
378.000      3.77432e+00
379.000      3.39314e+00
380.000      2.98052e+00
381.000      2.57300e+00
382.000      2.20490e+00
383.000      1.89941e+00
384.000      1.66366e+00
385.000      1.48899e+00
386.000      1.35571e+00
387.000      1.24041e+00
388.000      1.12313e+00
389.000      9.92327e-01
390.000      8.46315e-01
391.000      6.91517e-01
392.000      5.38705e-01
393.000      3.98891e-01
394.000      2.80222e-01
395.000      1.86555e-01
396.000      1.17617e-01
397.000      7.01972e-02
398.000      3.96503e-02
399.000      2.11927e-02
400.000      1.07177e-02
401.000      5.12827e-03
402.000      2.32155e-03
403.000      9.94298e-04
404.000      4.02884e-04
405.000      1.54442e-04
406.000      5.60108e-05
407.000      1.92175e-05
408.000      6.23795e-06
409.000      1.91560e-06
410.000      5.56525e-07
411.000      1.52962e-07
412.000      3.97739e-08
413.000      9.78435e-09
414.000      2.27711e-09
415.000      5.01363e-10
416.000      1.04433e-10
417.000      2.05799e-11
418.000      3.83676e-12
419.000      6.76713e-13
420.000      1.12917e-13
421.000      1.78253e-14
422.000      2.66212e-15
423.000      3.76130e-16
424.000      5.02765e-17
425.000      6.35785e-18
426.000      7.60629e-19
427.000      8.60900e-20
428.000      9.21830e-21
429.000      9.33826e-22
430.000      8.94951e-23
431.000      8.11427e-24
432.000      6.96014e-25
433.000      5.64812e-26
434.000      4.33618e-27
435.000      3.14940e-28
436.000      2.16405e-29
437.000      1.40677e-30
438.000      8.65160e-32
439.000      5.03371e-33
440.000      2.77075e-34
441.000      1.44286e-35
442.000      7.10833e-37
443.000      3.31306e-38
444.000      1.46086e-39
445.000      6.09405e-41
446.000      2.40503e-42
447.000      8.97951e-44
448.000      3.17178e-45
449.000      1.05991e-46
450.000      3.35085e-48
451.000      1.00221e-49
452.000      2.83581e-51
453.000      7.59129e-53
454.000      1.92252e-54
455.000      4.60621e-56
456.000      1.04408e-57
457.000      2.23894e-59
458.000      4.54222e-61
459.000      8.71790e-63
460.000      1.58297e-64
461.000      2.71926e-66
462.000      4.41924e-68
463.000      6.79456e-70
464.000      9.88309e-72
465.000      1.36001e-73
466.000      1.77055e-75
467.000      2.18068e-77
468.000      2.54094e-79
469.000      2.80101e-81
470.000      2.92113e-83
471.000      2.88208e-85
472.000      2.69016e-87
473.000      2.37557e-89
474.000      1.98461e-91
475.000      1.56856e-93
476.000      1.17285e-95
477.000      8.29665e-98
478.000     5.55240e-100
479.000     3.51541e-102
480.000     2.10566e-104
481.000     1.19322e-106
482.000     6.39687e-109
483.000     3.24439e-111
484.000     1.55674e-113
485.000     7.06672e-116
486.000     3.03485e-118
487.000     1.23303e-120
488.000     4.73944e-123
489.000     1.72345e-125
490.000     5.92908e-128
491.000     1.92972e-130
492.000     5.94180e-133
493.000     1.73085e-135
494.000     4.77001e-138
495.000     1.24364e-140
496.000     3.06754e-143
497.000     7.15819e-146
498.000     1.58028e-148
499.000     3.30050e-151
500.000     6.52147e-154
