# Gaussian folded, width=10 cm^-1
# [cm^-1] arbitrary
0.000      3.00000e+00
1.000      2.91796e+00
2.000      2.68508e+00
3.000      2.33749e+00
4.000      1.92514e+00
5.000      1.50000e+00
6.000      1.10570e+00
7.000      7.71085e-01
8.000      5.08727e-01
9.000      3.17530e-01
10.000      1.87502e-01
11.000      1.04752e-01
12.000      5.53807e-02
13.000      2.77475e-02
14.000      1.32954e-02
15.000      6.42857e-03
16.000      3.99762e-03
17.000      4.82037e-03
18.000      9.51488e-03
19.000      2.07925e-02
20.000      4.42501e-02
21.000      8.95574e-02
22.000      1.71707e-01
23.000      3.11683e-01
24.000      5.35590e-01
25.000      8.71252e-01
26.000      1.34168e+00
27.000      1.95592e+00
28.000      2.69930e+00
29.000      3.52656e+00
30.000      4.36169e+00
31.000      5.10697e+00
32.000      5.66080e+00
33.000      5.94019e+00
34.000      5.90113e+00
35.000      5.54994e+00
36.000      4.94173e+00
37.000      4.16641e+00
38.000      3.32744e+00
39.000      2.52035e+00
40.000      1.81748e+00
41.000      1.26233e+00
42.000      8.72911e-01
43.000      6.50919e-01
44.000      5.92165e-01
45.000      6.94243e-01
46.000      9.58867e-01
47.000      1.38820e+00
48.000      1.97644e+00
49.000      2.69976e+00
50.000      3.50856e+00
51.000      4.32628e+00
52.000      5.05718e+00
53.000      5.60271e+00
54.000      5.88237e+00
55.000      5.85287e+00
56.000      5.51896e+00
57.000      4.93233e+00
58.000      4.17876e+00
59.000      3.35834e+00
60.000      2.56514e+00
61.000      1.87262e+00
62.000      1.32771e+00
63.000      9.53518e-01
64.000      7.57325e-01
65.000      7.39605e-01
66.000      9.00077e-01
67.000      1.23845e+00
68.000      1.74970e+00
69.000      2.41601e+00
70.000      3.19911e+00
71.000      4.03747e+00
72.000      4.85181e+00
73.000      5.55944e+00
74.000      6.09476e+00
75.000      6.42940e+00
76.000      6.58483e+00
77.000      6.63169e+00
78.000      6.67478e+00
79.000      6.82782e+00
80.000      7.18636e+00
81.000      7.80753e+00
82.000      8.70237e+00
83.000      9.84101e+00
84.000      1.11656e+01
85.000      1.26030e+01
86.000      1.40726e+01
87.000      1.54853e+01
88.000      1.67415e+01
89.000      1.77313e+01
90.000      1.83460e+01
91.000      1.84984e+01
92.000      1.81478e+01
93.000      1.73185e+01
94.000      1.61034e+01
95.000      1.46487e+01
96.000      1.31235e+01
97.000      1.16852e+01
98.000      1.04527e+01
99.000      9.49477e+00
100.000      8.83675e+00
101.000      8.47849e+00
102.000      8.41406e+00
103.000      8.64440e+00
104.000      9.17829e+00
105.000      1.00236e+01
106.000      1.11746e+01
107.000      1.26016e+01
108.000      1.42466e+01
109.000      1.60260e+01
110.000      1.78359e+01
111.000      1.95590e+01
112.000      2.10724e+01
113.000      2.22574e+01
114.000      2.30141e+01
115.000      2.32787e+01
116.000      2.30419e+01
117.000      2.23597e+01
118.000      2.13512e+01
119.000      2.01812e+01
120.000      1.90300e+01
121.000      1.80567e+01
122.000      1.73685e+01
123.000      1.70012e+01
124.000      1.69188e+01
125.000      1.70284e+01
126.000      1.72068e+01
127.000      1.73290e+01
128.000      1.72926e+01
129.000      1.70317e+01
130.000      1.65198e+01
131.000      1.57647e+01
132.000      1.47996e+01
133.000      1.36732e+01
134.000      1.24428e+01
135.000      1.11696e+01
136.000      9.91387e+00
137.000      8.73101e+00
138.000      7.66612e+00
139.000      6.74862e+00
140.000      5.98836e+00
141.000      5.37466e+00
142.000      4.87914e+00
143.000      4.46196e+00
144.000      4.08048e+00
145.000      3.69814e+00
146.000      3.29152e+00
147.000      2.85395e+00
148.000      2.39468e+00
149.000      1.93437e+00
150.000      1.49827e+00
151.000      1.10941e+00
152.000      7.83537e-01
153.000      5.26926e-01
154.000      3.36995e-01
155.000      2.04836e-01
156.000      1.18449e-01
157.000      6.56710e-02
158.000      3.62248e-02
159.000      2.28484e-02
160.000      2.17710e-02
161.000      3.29156e-02
162.000      6.01070e-02
163.000      1.11349e-01
164.000      1.98977e-01
165.000      3.39298e-01
166.000      5.51266e-01
167.000      8.53903e-01
168.000      1.26257e+00
169.000      1.78477e+00
170.000      2.41654e+00
171.000      3.14090e+00
172.000      3.92918e+00
173.000      4.74547e+00
174.000      5.55341e+00
175.000      6.32348e+00
176.000      7.03883e+00
177.000      7.69789e+00
178.000      8.31297e+00
179.000      8.90530e+00
180.000      9.49780e+00
181.000      1.01078e+01
182.000      1.07417e+01
183.000      1.13926e+01
184.000      1.20425e+01
185.000      1.26665e+01
186.000      1.32387e+01
187.000      1.37381e+01
188.000      1.41516e+01
189.000      1.44759e+01
190.000      1.47162e+01
191.000      1.48856e+01
192.000      1.50034e+01
193.000      1.50944e+01
194.000      1.51873e+01
195.000      1.53128e+01
196.000      1.54998e+01
197.000      1.57716e+01
198.000      1.61427e+01
199.000      1.66171e+01
200.000      1.71883e+01
201.000      1.78410e+01
202.000      1.85515e+01
203.000      1.92881e+01
204.000      2.00107e+01
205.000      2.06723e+01
206.000      2.12228e+01
207.000      2.16165e+01
208.000      2.18225e+01
209.000      2.18321e+01
210.000      2.16634e+01
211.000      2.13574e+01
212.000      2.09687e+01
213.000      2.05530e+01
214.000      2.01557e+01
215.000      1.98066e+01
216.000      1.95204e+01
217.000      1.93014e+01
218.000      1.91500e+01
219.000      1.90655e+01
220.000      1.90466e+01
221.000      1.90895e+01
222.000      1.91867e+01
223.000      1.93283e+01
224.000      1.95059e+01
225.000      1.97178e+01
226.000      1.99712e+01
227.000      2.02814e+01
228.000      2.06656e+01
229.000      2.11347e+01
230.000      2.16845e+01
231.000      2.22902e+01
232.000      2.29054e+01
233.000      2.34669e+01
234.000      2.39044e+01
235.000      2.41526e+01
236.000      2.41635e+01
237.000      2.39156e+01
238.000      2.34188e+01
239.000      2.27136e+01
240.000      2.18657e+01
241.000      2.09594e+01
242.000      2.00900e+01
243.000      1.93570e+01
244.000      1.88575e+01
245.000      1.86774e+01
246.000      1.88785e+01
247.000      1.94820e+01
248.000      2.04529e+01
249.000      2.16893e+01
250.000      2.30251e+01
251.000      2.42491e+01
252.000      2.51387e+01
253.000      2.55023e+01
254.000      2.52172e+01
255.000      2.42534e+01
256.000      2.26756e+01
257.000      2.06236e+01
258.000      1.82792e+01
259.000      1.58287e+01
260.000      1.34337e+01
261.000      1.12139e+01
262.000      9.24532e+00
263.000      7.56678e+00
264.000      6.19124e+00
265.000      5.11567e+00
266.000      4.32696e+00
267.000      3.80379e+00
268.000      3.51597e+00
269.000      3.42360e+00
270.000      3.47792e+00
271.000      3.62477e+00
272.000      3.81012e+00
273.000      3.98619e+00
274.000      4.11631e+00
275.000      4.17733e+00
276.000      4.15905e+00
277.000      4.06182e+00
278.000      3.89316e+00
279.000      3.66472e+00
280.000      3.38988e+00
281.000      3.08210e+00
282.000      2.75383e+00
283.000      2.41590e+00
284.000      2.07757e+00
285.000      1.74692e+00
286.000      1.43160e+00
287.000      1.13911e+00
288.000      8.76569e-01
289.000      6.49838e-01
290.000      4.62478e-01
291.000      3.15001e-01
292.000      2.04813e-01
293.000      1.26865e-01
294.000      7.47561e-02
295.000      4.18984e-02
296.000      2.24385e-02
297.000      1.17911e-02
298.000      6.82232e-03
299.000      5.82306e-03
300.000      8.43313e-03
301.000      1.56271e-02
302.000      2.97921e-02
303.000      5.48340e-02
304.000      9.61741e-02
305.000      1.60467e-01
306.000      2.54911e-01
307.000      3.86164e-01
308.000      5.59060e-01
309.000      7.75482e-01
310.000      1.03379e+00
311.000      1.32903e+00
312.000      1.65383e+00
313.000      1.99958e+00
314.000      2.35758e+00
315.000      2.71976e+00
316.000      3.07946e+00
317.000      3.43239e+00
318.000      3.77832e+00
319.000      4.12279e+00
320.000      4.47817e+00
321.000      4.86242e+00
322.000      5.29551e+00
323.000      5.79402e+00
324.000      6.36606e+00
325.000      7.00894e+00
326.000      7.71104e+00
327.000      8.45732e+00
328.000      9.23627e+00
329.000      1.00451e+01
330.000      1.08907e+01
331.000      1.17853e+01
332.000      1.27388e+01
333.000      1.37498e+01
334.000      1.47989e+01
335.000      1.58468e+01
336.000      1.68357e+01
337.000      1.76961e+01
338.000      1.83550e+01
339.000      1.87435e+01
340.000      1.88053e+01
341.000      1.85029e+01
342.000      1.78232e+01
343.000      1.67819e+01
344.000      1.54248e+01
345.000      1.38261e+01
346.000      1.20820e+01
347.000      1.03009e+01
348.000      8.59232e+00
349.000      7.05518e+00
350.000      5.76970e+00
351.000      4.79133e+00
352.000      4.14754e+00
353.000      3.83663e+00
354.000      3.82821e+00
355.000      4.06605e+00
356.000      4.47402e+00
357.000      4.96555e+00
358.000      5.45575e+00
359.000      5.87392e+00
360.000      6.17320e+00
361.000      6.33490e+00
362.000      6.36607e+00
363.000      6.29171e+00
364.000      6.14439e+00
365.000      5.95499e+00
366.000      5.74702e+00
367.000      5.53544e+00
368.000      5.32862e+00
369.000      5.13147e+00
370.000      4.94745e+00
371.000      4.77878e+00
372.000      4.62511e+00
373.000      4.48211e+00
374.000      4.34131e+00
375.000      4.19214e+00
376.000      4.02556e+00
377.000      3.83823e+00
378.000      3.63516e+00
379.000      3.42983e+00
380.000      3.24100e+00
381.000      3.08744e+00
382.000      2.98179e+00
383.000      2.92580e+00
384.000      2.90830e+00
385.000      2.90664e+00
386.000      2.89140e+00
387.000      2.83306e+00
388.000      2.70909e+00
389.000      2.50946e+00
390.000      2.23897e+00
391.000      1.91593e+00
392.000      1.56748e+00
393.000      1.22319e+00
394.000      9.08853e-01
395.000      6.42121e-01
396.000      4.30945e-01
397.000      2.74516e-01
398.000      1.65880e-01
399.000      9.50366e-02
400.000      5.16064e-02
401.000      2.65526e-02
402.000      1.29420e-02
403.000      5.97466e-03
404.000      2.61204e-03
405.000      1.08132e-03
406.000      4.23837e-04
407.000      1.57283e-04
408.000      5.52556e-05
409.000      1.83766e-05
410.000      5.78534e-06
411.000      1.72407e-06
412.000      4.86326e-07
413.000      1.29849e-07
414.000      3.28153e-08
415.000      7.84937e-09
416.000      1.77706e-09
417.000      3.80781e-10
418.000      7.72224e-11
419.000      1.48218e-11
420.000      2.69242e-12
421.000      4.62873e-13
422.000      7.53098e-14
423.000      1.15960e-14
424.000      1.68976e-15
425.000      2.33021e-16
426.000      3.04100e-17
427.000      3.75562e-18
428.000      4.38922e-19
429.000      4.85432e-20
430.000      5.08042e-21
431.000      5.03149e-22
432.000      4.71537e-23
433.000      4.18169e-24
434.000      3.50915e-25
435.000      2.78651e-26
436.000      2.09376e-27
437.000      1.48865e-28
438.000      1.00152e-29
439.000      6.37556e-31
440.000      3.84034e-32
441.000      2.18882e-33
442.000      1.18042e-34
443.000      6.02342e-36
444.000      2.90824e-37
445.000      1.32860e-38
446.000      5.74290e-40
447.000      2.34877e-41
448.000      9.08905e-43
449.000      3.32785e-44
450.000      1.15285e-45
451.000      3.77872e-47
452.000      1.17186e-48
453.000      3.43849e-50
454.000      9.54583e-52
455.000      2.50735e-53
456.000      6.23117e-55
457.000      1.46512e-56
458.000      3.25934e-58
459.000      6.86013e-60
460.000      1.36610e-61
461.000      2.57381e-63
462.000      4.58792e-65
463.000      7.73745e-67
464.000      1.23458e-68
465.000      1.86374e-70
466.000      2.66187e-72
467.000      3.59690e-74
468.000      4.59840e-76
469.000      5.56187e-78
470.000      6.36459e-80
471.000      6.89057e-82
472.000      7.05786e-84
473.000      6.83950e-86
474.000      6.27057e-88
475.000      5.43903e-90
476.000      4.46341e-92
477.000      3.46531e-94
478.000      2.54535e-96
479.000      1.76881e-98
480.000     1.16290e-100
481.000     7.23326e-103
482.000     4.25649e-105
483.000     2.36971e-107
484.000     1.24815e-109
485.000     6.21961e-112
486.000     2.93215e-114
487.000     1.30778e-116
488.000     5.51830e-119
489.000     2.20294e-121
490.000     8.31999e-124
491.000     2.97281e-126
492.000     1.00493e-128
493.000     3.21386e-131
494.000     9.72391e-134
495.000     2.78341e-136
496.000     7.53767e-139
497.000     1.93116e-141
498.000     4.68082e-144
499.000     1.07336e-146
500.000     2.32859e-149
