# Gaussian folded, width=10 cm^-1
# [cm^-1] arbitrary
0.000      3.00000e+00
1.000      2.91796e+00
2.000      2.68508e+00
3.000      2.33749e+00
4.000      1.92514e+00
5.000      1.50000e+00
6.000      1.10570e+00
7.000      7.71085e-01
8.000      5.08727e-01
9.000      3.17530e-01
10.000      1.87502e-01
11.000      1.04752e-01
12.000      5.53798e-02
13.000      2.77450e-02
14.000      1.32886e-02
15.000      6.41115e-03
16.000      3.95532e-03
17.000      4.72364e-03
18.000      9.30672e-03
19.000      2.03713e-02
20.000      4.34492e-02
21.000      8.81281e-02
22.000      1.69317e-01
23.000      3.07943e-01
24.000      5.30132e-01
25.000      8.63845e-01
26.000      1.33238e+00
27.000      1.94521e+00
28.000      2.68812e+00
29.000      3.51625e+00
30.000      4.35373e+00
31.000      5.10266e+00
32.000      5.66093e+00
33.000      5.94480e+00
34.000      5.90947e+00
35.000      5.56070e+00
36.000      4.95335e+00
37.000      4.17748e+00
38.000      3.33695e+00
39.000      2.52781e+00
40.000      1.82290e+00
41.000      1.26609e+00
42.000      8.75583e-01
43.000      6.53145e-01
44.000      5.94555e-01
45.000      6.97314e-01
46.000      9.62985e-01
47.000      1.39351e+00
48.000      1.98281e+00
49.000      2.70671e+00
50.000      3.51533e+00
51.000      4.33192e+00
52.000      5.06079e+00
53.000      5.60363e+00
54.000      5.88041e+00
55.000      5.84833e+00
56.000      5.51257e+00
57.000      4.92502e+00
58.000      4.17140e+00
59.000      3.35148e+00
60.000      2.55886e+00
61.000      1.86646e+00
62.000      1.32067e+00
63.000      9.44166e-01
64.000      7.43997e-01
65.000      7.20734e-01
66.000      8.74682e-01
67.000      1.20672e+00
68.000      1.71350e+00
69.000      2.37909e+00
70.000      3.16668e+00
71.000      4.01522e+00
72.000      4.84435e+00
73.000      5.56884e+00
74.000      6.11970e+00
75.000      6.46539e+00
76.000      6.62571e+00
77.000      6.67179e+00
78.000      6.71100e+00
79.000      6.86080e+00
80.000      7.21996e+00
81.000      7.84676e+00
82.000      8.75037e+00
83.000      9.89620e+00
84.000      1.12203e+01
85.000      1.26449e+01
86.000      1.40877e+01
87.000      1.54633e+01
88.000      1.66804e+01
89.000      1.76397e+01
90.000      1.82419e+01
91.000      1.84049e+01
92.000      1.80869e+01
93.000      1.73053e+01
94.000      1.61423e+01
95.000      1.47333e+01
96.000      1.32388e+01
97.000      1.18118e+01
98.000      1.05712e+01
99.000      9.58986e+00
100.000      8.90051e+00
101.000      8.51221e+00
102.000      8.42858e+00
103.000      8.65818e+00
104.000      9.21323e+00
105.000      1.00991e+01
106.000      1.13011e+01
107.000      1.27760e+01
108.000      1.44515e+01
109.000      1.62328e+01
110.000      1.80117e+01
111.000      1.96753e+01
112.000      2.11119e+01
113.000      2.22178e+01
114.000      2.29065e+01
115.000      2.31235e+01
116.000      2.28616e+01
117.000      2.21731e+01
118.000      2.11701e+01
119.000      2.00094e+01
120.000      1.88647e+01
121.000      1.78923e+01
122.000      1.71996e+01
123.000      1.68275e+01
124.000      1.67476e+01
125.000      1.68767e+01
126.000      1.71006e+01
127.000      1.72997e+01
128.000      1.73706e+01
129.000      1.72391e+01
130.000      1.68638e+01
131.000      1.62342e+01
132.000      1.53648e+01
133.000      1.42898e+01
134.000      1.30581e+01
135.000      1.17297e+01
136.000      1.03716e+01
137.000      9.05174e+00
138.000      7.83166e+00
139.000      6.75858e+00
140.000      5.85829e+00
141.000      5.13160e+00
142.000      4.55570e+00
143.000      4.09060e+00
144.000      3.68929e+00
145.000      3.30896e+00
146.000      2.92009e+00
147.000      2.51124e+00
148.000      2.08831e+00
149.000      1.66942e+00
150.000      1.27746e+00
151.000      9.32847e-01
152.000      6.48652e-01
153.000      4.28831e-01
154.000      2.69282e-01
155.000      1.60593e-01
156.000      9.12139e-02
157.000      5.01003e-02
158.000      2.84409e-02
159.000      2.05230e-02
160.000      2.40671e-02
161.000      4.03771e-02
162.000      7.44985e-02
163.000      1.35347e-01
164.000      2.35542e-01
165.000      3.90569e-01
166.000      6.16930e-01
167.000      9.29250e-01
168.000      1.33673e+00
169.000      1.83981e+00
170.000      2.42817e+00
171.000      3.08100e+00
172.000      3.77001e+00
173.000      4.46462e+00
174.000      5.13818e+00
175.000      5.77362e+00
176.000      6.36706e+00
177.000      6.92856e+00
178.000      7.47978e+00
179.000      8.04936e+00
180.000      8.66659e+00
181.000      9.35464e+00
182.000      1.01244e+01
183.000      1.09695e+01
184.000      1.18649e+01
185.000      1.27681e+01
186.000      1.36251e+01
187.000      1.43803e+01
188.000      1.49874e+01
189.000      1.54201e+01
190.000      1.56781e+01
191.000      1.57875e+01
192.000      1.57945e+01
193.000      1.57550e+01
194.000      1.57225e+01
195.000      1.57391e+01
196.000      1.58316e+01
197.000      1.60131e+01
198.000      1.62878e+01
199.000      1.66571e+01
200.000      1.71217e+01
201.000      1.76804e+01
202.000      1.83246e+01
203.000      1.90326e+01
204.000      1.97668e+01
205.000      2.04762e+01
206.000      2.11048e+01
207.000      2.16036e+01
208.000      2.19432e+01
209.000      2.21205e+01
210.000      2.21597e+01
211.000      2.21040e+01
212.000      2.20024e+01
213.000      2.18940e+01
214.000      2.17964e+01
215.000      2.17009e+01
216.000      2.15770e+01
217.000      2.13848e+01
218.000      2.10913e+01
219.000      2.06856e+01
220.000      2.01874e+01
221.000      1.96468e+01
222.000      1.91348e+01
223.000      1.87282e+01
224.000      1.84930e+01
225.000      1.84717e+01
226.000      1.86767e+01
227.000      1.90910e+01
228.000      1.96740e+01
229.000      2.03696e+01
230.000      2.11145e+01
231.000      2.18441e+01
232.000      2.24967e+01
233.000      2.30162e+01
234.000      2.33550e+01
235.000      2.34776e+01
236.000      2.33655e+01
237.000      2.30211e+01
238.000      2.24708e+01
239.000      2.17639e+01
240.000      2.09693e+01
241.000      2.01684e+01
242.000      1.94483e+01
243.000      1.88938e+01
244.000      1.85803e+01
245.000      1.85667e+01
246.000      1.88874e+01
247.000      1.95429e+01
248.000      2.04917e+01
249.000      2.16443e+01
250.000      2.28651e+01
251.000      2.39840e+01
252.000      2.48185e+01
253.000      2.52019e+01
254.000      2.50133e+01
255.000      2.42000e+01
256.000      2.27860e+01
257.000      2.08660e+01
258.000      1.85855e+01
259.000      1.61147e+01
260.000      1.36224e+01
261.000      1.12562e+01
262.000      9.12946e+00
263.000      7.31715e+00
264.000      5.85664e+00
265.000      4.75233e+00
266.000      3.98257e+00
267.000      3.50776e+00
268.000      3.27843e+00
269.000      3.24211e+00
270.000      3.34787e+00
271.000      3.54808e+00
272.000      3.79799e+00
273.000      4.05446e+00
274.000      4.27582e+00
275.000      4.42378e+00
276.000      4.46785e+00
277.000      4.39068e+00
278.000      4.19220e+00
279.000      3.89045e+00
280.000      3.51772e+00
281.000      3.11288e+00
282.000      2.71214e+00
283.000      2.34144e+00
284.000      2.01276e+00
285.000      1.72540e+00
286.000      1.47083e+00
287.000      1.23881e+00
288.000      1.02230e+00
289.000      8.19615e-01
290.000      6.33723e-01
291.000      4.69824e-01
292.000      3.32560e-01
293.000      2.24079e-01
294.000      1.43434e-01
295.000      8.71186e-02
296.000      5.02119e-02
297.000      2.75793e-02
298.000      1.47683e-02
299.000      8.50378e-03
300.000      6.87332e-03
301.000      9.36554e-03
302.000      1.69023e-02
303.000      3.19193e-02
304.000      5.84433e-02
305.000      1.02019e-01
306.000      1.69290e-01
307.000      2.67088e-01
308.000      4.01013e-01
309.000      5.73753e-01
310.000      7.83637e-01
311.000      1.02405e+00
312.000      1.28429e+00
313.000      1.55206e+00
314.000      1.81736e+00
315.000      2.07681e+00
316.000      2.33725e+00
317.000      2.61736e+00
318.000      2.94636e+00
319.000      3.35955e+00
320.000      3.89130e+00
321.000      4.56679e+00
322.000      5.39448e+00
323.000      6.36123e+00
324.000      7.43141e+00
325.000      8.55086e+00
326.000      9.65474e+00
327.000      1.06781e+01
328.000      1.15662e+01
329.000      1.22835e+01
330.000      1.28183e+01
331.000      1.31832e+01
332.000      1.34118e+01
333.000      1.35515e+01
334.000      1.36551e+01
335.000      1.37711e+01
336.000      1.39351e+01
337.000      1.41633e+01
338.000      1.44488e+01
339.000      1.47611e+01
340.000      1.50495e+01
341.000      1.52490e+01
342.000      1.52891e+01
343.000      1.51037e+01
344.000      1.46429e+01
345.000      1.38848e+01
346.000      1.28445e+01
347.000      1.15784e+01
348.000      1.01809e+01
349.000      8.77364e+00
350.000      7.48798e+00
351.000      6.44423e+00
352.000      5.73187e+00
353.000      5.39465e+00
354.000      5.42380e+00
355.000      5.76034e+00
356.000      6.30622e+00
357.000      6.94182e+00
358.000      7.54630e+00
359.000      8.01681e+00
360.000      8.28276e+00
361.000      8.31273e+00
362.000      8.11354e+00
363.000      7.72251e+00
364.000      7.19567e+00
365.000      6.59491e+00
366.000      5.97689e+00
367.000      5.38581e+00
368.000      4.85074e+00
369.000      4.38726e+00
370.000      4.00172e+00
371.000      3.69617e+00
372.000      3.47192e+00
373.000      3.33030e+00
374.000      3.27084e+00
375.000      3.28778e+00
376.000      3.36705e+00
377.000      3.48532e+00
378.000      3.61222e+00
379.000      3.71527e+00
380.000      3.76598e+00
381.000      3.74533e+00
382.000      3.64664e+00
383.000      3.47526e+00
384.000      3.24526e+00
385.000      2.97464e+00
386.000      2.68061e+00
387.000      2.37659e+00
388.000      2.07153e+00
389.000      1.77110e+00
390.000      1.47987e+00
391.000      1.20307e+00
392.000      9.47079e-01
393.000      7.18705e-01
394.000      5.23669e-01
395.000      3.65137e-01
396.000      2.42985e-01
397.000      1.53998e-01
398.000      9.28011e-02
399.000      5.31078e-02
400.000      2.88352e-02
401.000      1.48436e-02
402.000      7.24070e-03
403.000      3.34558e-03
404.000      1.46380e-03
405.000      6.06338e-04
406.000      2.37737e-04
407.000      8.82209e-05
408.000      3.09811e-05
409.000      1.02954e-05
410.000      3.23728e-06
411.000      9.63155e-07
412.000      2.71128e-07
413.000      7.22112e-08
414.000      1.81961e-08
415.000      4.33801e-09
416.000      9.78442e-10
417.000      2.08790e-10
418.000      4.21511e-11
419.000      8.05071e-12
420.000      1.45473e-12
421.000      2.48686e-13
422.000      4.02200e-14
423.000      6.15392e-15
424.000      8.90802e-16
425.000      1.21992e-16
426.000      1.58051e-17
427.000      1.93724e-18
428.000      2.24640e-19
429.000      2.46438e-20
430.000      2.55769e-21
431.000      2.51134e-22
432.000      2.33282e-23
433.000      2.05010e-24
434.000      1.70446e-25
435.000      1.34065e-26
436.000      9.97610e-28
437.000      7.02304e-29
438.000      4.67742e-30
439.000      2.94718e-31
440.000      1.75680e-32
441.000      9.90736e-34
442.000      5.28579e-35
443.000      2.66796e-36
444.000      1.27399e-37
445.000      5.75536e-39
446.000      2.45977e-40
447.000      9.94570e-42
448.000      3.80446e-43
449.000      1.37679e-44
450.000      4.71370e-46
451.000      1.52677e-47
452.000      4.67844e-49
453.000      1.35627e-50
454.000      3.71972e-52
455.000      9.65142e-54
456.000      2.36913e-55
457.000      5.50182e-57
458.000      1.20876e-58
459.000      2.51242e-60
460.000      4.94038e-62
461.000      9.19067e-64
462.000      1.61753e-65
463.000      2.69323e-67
464.000      4.24241e-69
465.000      6.32222e-71
466.000      8.91343e-73
467.000      1.18888e-74
468.000      1.50019e-76
469.000      1.79091e-78
470.000      2.02264e-80
471.000      2.16114e-82
472.000      2.18455e-84
473.000      2.08910e-86
474.000      1.89006e-88
475.000      1.61774e-90
476.000      1.30996e-92
477.000      1.00352e-94
478.000      7.27300e-97
479.000      4.98675e-99
480.000     3.23473e-101
481.000     1.98508e-103
482.000     1.15248e-105
483.000     6.33005e-108
484.000     3.28926e-110
485.000     1.61699e-112
486.000     7.52029e-115
487.000     3.30886e-117
488.000     1.37734e-119
489.000     5.42401e-122
490.000     2.02077e-124
491.000     7.12249e-127
492.000     2.37500e-129
493.000     7.49228e-132
494.000     2.23605e-134
495.000     6.31345e-137
496.000     1.68643e-139
497.000     4.26177e-142
498.000     1.01889e-144
499.000     2.30453e-147
500.000     4.93124e-150
