# Gaussian folded, width=10 cm^-1
# [cm^-1] arbitrary
0.000      3.00000e+00
1.000      2.91796e+00
2.000      2.68508e+00
3.000      2.33749e+00
4.000      1.92514e+00
5.000      1.50000e+00
6.000      1.10570e+00
7.000      7.71085e-01
8.000      5.08727e-01
9.000      3.17530e-01
10.000      1.87502e-01
11.000      1.04752e-01
12.000      5.53801e-02
13.000      2.77458e-02
14.000      1.32909e-02
15.000      6.41732e-03
16.000      3.97117e-03
17.000      4.76213e-03
18.000      9.39502e-03
19.000      2.05625e-02
20.000      4.38402e-02
21.000      8.88821e-02
22.000      1.70687e-01
23.000      3.10287e-01
24.000      5.33901e-01
25.000      8.69534e-01
26.000      1.34042e+00
27.000      1.95580e+00
28.000      2.70108e+00
29.000      3.53086e+00
30.000      4.36872e+00
31.000      5.11634e+00
32.000      5.67147e+00
33.000      5.95063e+00
34.000      5.90967e+00
35.000      5.55522e+00
36.000      4.94302e+00
37.000      4.16379e+00
38.000      3.32164e+00
39.000      2.51245e+00
40.000      1.80854e+00
41.000      1.25302e+00
42.000      8.63385e-01
43.000      6.40787e-01
44.000      5.80714e-01
45.000      6.80784e-01
46.000      9.43148e-01
47.000      1.37078e+00
48.000      1.95893e+00
49.000      2.68468e+00
50.000      3.49889e+00
51.000      4.32470e+00
52.000      5.06517e+00
53.000      5.61992e+00
54.000      5.90649e+00
55.000      5.88009e+00
56.000      5.54498e+00
57.000      4.95340e+00
58.000      4.19253e+00
59.000      3.36411e+00
60.000      2.56359e+00
61.000      1.86510e+00
62.000      1.31552e+00
63.000      9.37358e-01
64.000      7.37218e-01
65.000      7.15250e-01
66.000      8.71579e-01
67.000      1.20714e+00
68.000      1.71870e+00
69.000      2.39021e+00
70.000      3.18426e+00
71.000      4.03857e+00
72.000      4.87109e+00
73.000      5.59487e+00
74.000      6.13974e+00
75.000      6.47416e+00
76.000      6.61931e+00
77.000      6.64907e+00
78.000      6.67438e+00
79.000      6.81626e+00
80.000      7.17610e+00
81.000      7.81295e+00
82.000      8.73423e+00
83.000      9.90088e+00
84.000      1.12422e+01
85.000      1.26725e+01
86.000      1.41032e+01
87.000      1.54461e+01
88.000      1.66130e+01
89.000      1.75144e+01
90.000      1.80655e+01
91.000      1.82000e+01
92.000      1.78881e+01
93.000      1.71514e+01
94.000      1.60669e+01
95.000      1.47557e+01
96.000      1.33606e+01
97.000      1.20176e+01
98.000      1.08335e+01
99.000      9.87652e+00
100.000      9.17924e+00
101.000      8.75272e+00
102.000      8.60129e+00
103.000      8.73226e+00
104.000      9.15686e+00
105.000      9.88399e+00
106.000      1.09111e+01
107.000      1.22168e+01
108.000      1.37570e+01
109.000      1.54643e+01
110.000      1.72488e+01
111.000      1.90006e+01
112.000      2.05947e+01
113.000      2.19014e+01
114.000      2.28039e+01
115.000      2.32208e+01
116.000      2.31281e+01
117.000      2.25723e+01
118.000      2.16689e+01
119.000      2.05835e+01
120.000      1.94988e+01
121.000      1.85763e+01
122.000      1.79230e+01
123.000      1.75725e+01
124.000      1.74845e+01
125.000      1.75620e+01
126.000      1.76796e+01
127.000      1.77137e+01
128.000      1.75672e+01
129.000      1.71832e+01
130.000      1.65461e+01
131.000      1.56751e+01
132.000      1.46132e+01
133.000      1.34164e+01
134.000      1.21456e+01
135.000      1.08615e+01
136.000      9.62088e+00
137.000      8.47277e+00
138.000      7.45459e+00
139.000      6.58810e+00
140.000      5.87658e+00
141.000      5.30456e+00
142.000      4.84078e+00
143.000      4.44434e+00
144.000      4.07297e+00
145.000      3.69172e+00
146.000      3.27973e+00
147.000      2.83341e+00
148.000      2.36513e+00
149.000      1.89804e+00
150.000      1.45889e+00
151.000      1.07098e+00
152.000      7.49316e-01
153.000      4.98881e-01
154.000      3.15726e-01
155.000      1.89868e-01
156.000      1.08699e-01
157.000      5.99048e-02
158.000      3.34003e-02
159.000      2.23129e-02
160.000      2.33308e-02
161.000      3.67948e-02
162.000      6.67908e-02
163.000      1.21282e-01
164.000      2.12104e-01
165.000      3.54509e-01
166.000      5.65933e-01
167.000      8.63830e-01
168.000      1.26272e+00
169.000      1.77090e+00
170.000      2.38766e+00
171.000      3.10155e+00
172.000      3.89059e+00
173.000      4.72422e+00
174.000      5.56715e+00
175.000      6.38439e+00
176.000      7.14670e+00
177.000      7.83558e+00
178.000      8.44658e+00
179.000      8.98998e+00
180.000      9.48812e+00
181.000      9.96963e+00
182.000      1.04619e+01
183.000      1.09840e+01
184.000      1.15416e+01
185.000      1.21270e+01
186.000      1.27217e+01
187.000      1.33025e+01
188.000      1.38480e+01
189.000      1.43421e+01
190.000      1.47760e+01
191.000      1.51470e+01
192.000      1.54567e+01
193.000      1.57093e+01
194.000      1.59114e+01
195.000      1.60731e+01
196.000      1.62093e+01
197.000      1.63408e+01
198.000      1.64946e+01
199.000      1.67016e+01
200.000      1.69938e+01
201.000      1.73977e+01
202.000      1.79275e+01
203.000      1.85768e+01
204.000      1.93140e+01
205.000      2.00819e+01
206.000      2.08051e+01
207.000      2.14032e+01
208.000      2.18073e+01
209.000      2.19744e+01
210.000      2.18954e+01
211.000      2.15952e+01
212.000      2.11249e+01
213.000      2.05502e+01
214.000      1.99404e+01
215.000      1.93606e+01
216.000      1.88674e+01
217.000      1.85069e+01
218.000      1.83132e+01
219.000      1.83045e+01
220.000      1.84800e+01
221.000      1.88174e+01
222.000      1.92754e+01
223.000      1.98004e+01
224.000      2.03372e+01
225.000      2.08400e+01
226.000      2.12813e+01
227.000      2.16554e+01
228.000      2.19756e+01
229.000      2.22663e+01
230.000      2.25523e+01
231.000      2.28470e+01
232.000      2.31443e+01
233.000      2.34156e+01
234.000      2.36137e+01
235.000      2.36838e+01
236.000      2.35773e+01
237.000      2.32664e+01
238.000      2.27537e+01
239.000      2.20747e+01
240.000      2.12938e+01
241.000      2.04942e+01
242.000      1.97662e+01
243.000      1.91974e+01
244.000      1.88655e+01
245.000      1.88319e+01
246.000      1.91347e+01
247.000      1.97793e+01
248.000      2.07271e+01
249.000      2.18879e+01
250.000      2.31193e+01
251.000      2.42401e+01
252.000      2.50558e+01
253.000      2.53925e+01
254.000      2.51310e+01
255.000      2.42290e+01
256.000      2.27286e+01
257.000      2.07442e+01
258.000      1.84374e+01
259.000      1.59863e+01
260.000      1.35579e+01
261.000      1.12888e+01
262.000      9.27638e+00
263.000      7.57871e+00
264.000      6.21904e+00
265.000      5.19261e+00
266.000      4.47340e+00
267.000      4.02017e+00
268.000      3.78226e+00
269.000      3.70505e+00
270.000      3.73513e+00
271.000      3.82441e+00
272.000      3.93257e+00
273.000      4.02770e+00
274.000      4.08549e+00
275.000      4.08817e+00
276.000      4.02406e+00
277.000      3.88828e+00
278.000      3.68386e+00
279.000      3.42215e+00
280.000      3.12111e+00
281.000      2.80161e+00
282.000      2.48266e+00
283.000      2.17744e+00
284.000      1.89181e+00
285.000      1.62552e+00
286.000      1.37553e+00
287.000      1.13948e+00
288.000      9.17930e-01
289.000      7.14515e-01
290.000      5.34492e-01
291.000      3.82567e-01
292.000      2.61143e-01
293.000      1.69595e-01
294.000      1.04613e-01
295.000      6.12345e-02
296.000      3.40351e-02
297.000      1.80890e-02
298.000      9.53752e-03
299.000      5.80426e-03
300.000      5.61378e-03
301.000      8.98085e-03
302.000      1.72842e-02
303.000      3.34491e-02
304.000      6.21576e-02
305.000      1.09911e-01
306.000      1.84706e-01
307.000      2.95117e-01
308.000      4.48723e-01
309.000      6.50118e-01
310.000      8.99060e-01
311.000      1.18954e+00
312.000      1.51052e+00
313.000      1.84859e+00
314.000      2.19214e+00
315.000      2.53563e+00
316.000      2.88247e+00
317.000      3.24488e+00
318.000      3.64029e+00
319.000      4.08521e+00
320.000      4.58845e+00
321.000      5.14645e+00
322.000      5.74268e+00
323.000      6.35209e+00
324.000      6.94935e+00
325.000      7.51862e+00
326.000      8.06149e+00
327.000      8.60024e+00
328.000      9.17484e+00
329.000      9.83401e+00
330.000      1.06223e+01
331.000      1.15668e+01
332.000      1.26659e+01
333.000      1.38850e+01
334.000      1.51572e+01
335.000      1.63915e+01
336.000      1.74856e+01
337.000      1.83395e+01
338.000      1.88702e+01
339.000      1.90225e+01
340.000      1.87753e+01
341.000      1.81430e+01
342.000      1.71710e+01
343.000      1.59278e+01
344.000      1.44937e+01
345.000      1.29515e+01
346.000      1.13782e+01
347.000      9.84171e+00
348.000      8.40048e+00
349.000      7.10493e+00
350.000      5.99855e+00
351.000      5.11706e+00
352.000      4.48531e+00
353.000      4.11295e+00
354.000      3.99087e+00
355.000      4.09009e+00
356.000      4.36401e+00
357.000      4.75383e+00
358.000      5.19598e+00
359.000      5.62994e+00
360.000      6.00506e+00
361.000      6.28541e+00
362.000      6.45223e+00
363.000      6.50393e+00
364.000      6.45400e+00
365.000      6.32708e+00
366.000      6.15358e+00
367.000      5.96370e+00
368.000      5.78144e+00
369.000      5.61984e+00
370.000      5.47836e+00
371.000      5.34332e+00
372.000      5.19151e+00
373.000      4.99662e+00
374.000      4.73729e+00
375.000      4.40466e+00
376.000      4.00746e+00
377.000      3.57292e+00
378.000      3.14260e+00
379.000      2.76413e+00
380.000      2.48058e+00
381.000      2.32031e+00
382.000      2.28978e+00
383.000      2.37115e+00
384.000      2.52533e+00
385.000      2.69967e+00
386.000      2.83870e+00
387.000      2.89533e+00
388.000      2.83999e+00
389.000      2.66548e+00
390.000      2.38662e+00
391.000      2.03496e+00
392.000      1.65039e+00
393.000      1.27210e+00
394.000      9.31296e-01
395.000      6.47243e-01
396.000      4.26847e-01
397.000      2.67017e-01
398.000      1.58390e-01
399.000      8.90651e-02
400.000      4.74646e-02
401.000      2.39672e-02
402.000      1.14647e-02
403.000      5.19436e-03
404.000      2.22875e-03
405.000      9.05511e-04
406.000      3.48322e-04
407.000      1.26848e-04
408.000      4.37282e-05
409.000      1.42688e-05
410.000      4.40693e-06
411.000      1.28820e-06
412.000      3.56377e-07
413.000      9.33040e-08
414.000      2.31175e-08
415.000      5.42025e-09
416.000      1.20261e-09
417.000      2.52494e-10
418.000      5.01636e-11
419.000      9.43044e-12
420.000      1.67755e-12
421.000      2.82367e-13
422.000      4.49723e-14
423.000      6.77740e-15
424.000      9.66421e-16
425.000      1.30392e-16
426.000      1.66463e-17
427.000      2.01076e-18
428.000      2.29816e-19
429.000      2.48528e-20
430.000      2.54297e-21
431.000      2.46196e-22
432.000      2.25522e-23
433.000      1.95464e-24
434.000      1.60293e-25
435.000      1.24374e-26
436.000      9.13081e-28
437.000      6.34242e-29
438.000      4.16837e-30
439.000      2.59203e-31
440.000      1.52503e-32
441.000      8.48944e-34
442.000      4.47138e-35
443.000      2.22825e-36
444.000      1.05063e-37
445.000      4.68696e-39
446.000      1.97831e-40
447.000      7.90050e-42
448.000      2.98520e-43
449.000      1.06721e-44
450.000      3.60979e-46
451.000      1.15523e-47
452.000      3.49795e-49
453.000      1.00210e-50
454.000      2.71621e-52
455.000      6.96578e-54
456.000      1.69016e-55
457.000      3.88008e-57
458.000      8.42759e-59
459.000      1.73188e-60
460.000      3.36731e-62
461.000      6.19438e-64
462.000      1.07811e-65
463.000      1.77532e-67
464.000      2.76591e-69
465.000      4.07707e-71
466.000      5.68598e-73
467.000      7.50256e-75
468.000      9.36612e-77
469.000      1.10626e-78
470.000      1.23623e-80
471.000      1.30703e-82
472.000      1.30742e-84
473.000      1.23734e-86
474.000      1.10792e-88
475.000      9.38574e-91
476.000      7.52266e-93
477.000      5.70449e-95
478.000      4.09264e-97
479.000      2.77799e-99
480.000     1.78402e-101
481.000     1.08394e-103
482.000     6.23096e-106
483.000     3.38877e-108
484.000     1.74368e-110
485.000     8.48852e-113
486.000     3.90962e-115
487.000     1.70362e-117
488.000     7.02346e-120
489.000     2.73946e-122
490.000     1.01092e-124
491.000     3.52940e-127
492.000     1.16580e-129
493.000     3.64318e-132
494.000     1.07714e-134
495.000     3.01300e-137
496.000     7.97369e-140
497.000     1.99643e-142
498.000     4.72914e-145
499.000     1.05985e-147
500.000     2.24718e-150
